#EXPORTTYPE:DATA SINGLE
#FORMAT:NETZSCH5
#FTYPE:ANSI
#IDENTITY:001924
#DECIMAL:POINT
#SEPARATOR:SEMICOLON
#DATE/TIME:13.12.2016 15:32
#CORR. FILE:001923_bline_Al_250_16_N2_20.ngb-bd3
#TEMPCAL:TCALZERO.TMX
#SENSITIVITY:SENSZERO.EXX
#SAMPLE MASS /mg:8.19
#MATERIAL:íåò
#REFERENCE:
#REFERENCE MASS /mg:0
#TYPE OF CRUCIBLE:Pan Al, closed
#SAMPLE CRUCIBLE MASS /mg:0
#REFERENCE CRUCIBLE MASS /mg:0
#M.RANGE /µV:5000
#TAU-R:---
#CORR. CODE:020
#EXO:+1
#RANGE:-10°C/10,0(K/min)/270°C
#SEGMENT:S2/2
#SEG. 2:-10°C/10,0(K/min)/270°C

##Temp./°C;Time/min;DSC/(uV/mg);Sensit./(uV/mW)
 66.71876;11.04500;    -1.01422;1.00000
 66.88928;11.06200;    -1.01330;1.00000
 67.05995;11.07900;    -1.01208;1.00000
 67.23052;11.09600;    -1.01235;1.00000
 67.40104;11.11300;    -1.01210;1.00000
 67.57207;11.13000;    -1.01190;1.00000
 67.74357;11.14700;    -1.01129;1.00000
 67.91548;11.16400;    -1.01253;1.00000
 68.08787;11.18100;    -1.01340;1.00000
 68.26045;11.19800;    -1.01563;1.00000
 68.43283;11.21500;    -1.01932;1.00000
 68.60519;11.23200;    -1.02137;1.00000
 68.77759;11.24900;    -1.02328;1.00000
 68.94997;11.26600;    -1.02493;1.00000
 69.12234;11.28300;    -1.02605;1.00000
 69.29486;11.30000;    -1.02662;1.00000
 69.46731;11.31700;    -1.02672;1.00000
 69.63944;11.33400;    -1.02406;1.00000
 69.81130;11.35100;    -1.02406;1.00000
 69.98280;11.36800;    -1.02447;1.00000
 70.15393;11.38500;    -1.02431;1.00000
 70.32517;11.40200;    -1.02424;1.00000
 70.49656;11.41900;    -1.02333;1.00000
 70.66809;11.43600;    -1.02180;1.00000
 70.83979;11.45300;    -1.02128;1.00000
 71.01123;11.47000;    -1.02245;1.00000
 71.18199;11.48700;    -1.02207;1.00000
 71.35202;11.50400;    -1.02172;1.00000
 71.52132;11.52100;    -1.01757;1.00000
 71.69034;11.53800;    -1.01544;1.00000
 71.85898;11.55500;    -1.01540;1.00000
 72.02762;11.57200;    -1.01404;1.00000
 72.19623;11.58900;    -1.01534;1.00000
 72.36473;11.60600;    -1.01341;1.00000
 72.53295;11.62300;    -1.01097;1.00000
 72.70117;11.64000;    -1.00730;1.00000
 72.86938;11.65700;    -1.00623;1.00000
 73.03792;11.67400;    -1.00632;1.00000
 73.20695;11.69100;    -1.00657;1.00000
 73.37661;11.70800;    -1.00708;1.00000
 73.54702;11.72500;    -1.00825;1.00000
 73.71758;11.74200;    -1.00877;1.00000
 73.88841;11.75900;    -1.01154;1.00000
 74.05923;11.77600;    -1.01418;1.00000
 74.22979;11.79300;    -1.01534;1.00000
 74.40015;11.81000;    -1.01608;1.00000
 74.57056;11.82700;    -1.01710;1.00000
 74.74089;11.84400;    -1.01693;1.00000
 74.91109;11.86100;    -1.01363;1.00000
 75.08095;11.87800;    -1.01166;1.00000
 75.25045;11.89500;    -1.01152;1.00000
 75.41997;11.91200;    -1.01275;1.00000
 75.58949;11.92900;    -1.01421;1.00000
 75.75937;11.94600;    -1.01671;1.00000
 75.92960;11.96300;    -1.01611;1.00000
 76.10036;11.98000;    -1.01427;1.00000
 76.27144;11.99700;    -1.01283;1.00000
 76.44255;12.01400;    -1.01235;1.00000
 76.61374;12.03100;    -1.01386;1.00000
 76.78454;12.04800;    -1.01447;1.00000
 76.95482;12.06500;    -1.01695;1.00000
 77.12500;12.08200;    -1.01992;1.00000
 77.29515;12.09900;    -1.02125;1.00000
 77.46518;12.11600;    -1.02341;1.00000
 77.63523;12.13300;    -1.02251;1.00000
 77.80499;12.15000;    -1.02080;1.00000
 77.97440;12.16700;    -1.01760;1.00000
 78.14360;12.18400;    -1.01424;1.00000
 78.31260;12.20100;    -1.01499;1.00000
 78.48150;12.21800;    -1.01517;1.00000
 78.65050;12.23500;    -1.01529;1.00000
 78.81952;12.25200;    -1.01432;1.00000
 78.98900;12.26900;    -1.01224;1.00000
 79.15829;12.28600;    -1.01454;1.00000
 79.32758;12.30300;    -1.01735;1.00000
 79.49679;12.32000;    -1.01696;1.00000
 79.66598;12.33700;    -1.01636;1.00000
 79.83536;12.35400;    -1.01459;1.00000
 80.00483;12.37100;    -1.01529;1.00000
 80.17423;12.38800;    -1.01161;1.00000
 80.34364;12.40500;    -1.00977;1.00000
 80.51303;12.42200;    -1.01020;1.00000
 80.68212;12.43900;    -1.01015;1.00000
 80.85139;12.45600;    -1.01309;1.00000
 81.02079;12.47300;    -1.01620;1.00000
 81.19043;12.49000;    -1.01838;1.00000
 81.36052;12.50700;    -1.01905;1.00000
 81.53097;12.52400;    -1.01909;1.00000
 81.70164;12.54100;    -1.01726;1.00000
 81.87270;12.55800;    -1.01852;1.00000
 82.04393;12.57500;    -1.02073;1.00000
 82.21524;12.59200;    -1.02205;1.00000
 82.38666;12.60900;    -1.02231;1.00000
 82.55834;12.62600;    -1.02488;1.00000
 82.73003;12.64300;    -1.02832;1.00000
 82.90179;12.66000;    -1.02976;1.00000
 83.07362;12.67700;    -1.03165;1.00000
 83.24523;12.69400;    -1.03242;1.00000
 83.41667;12.71100;    -1.03191;1.00000
 83.58813;12.72800;    -1.03237;1.00000
 83.75947;12.74500;    -1.03292;1.00000
 83.93050;12.76200;    -1.03169;1.00000
 84.10128;12.77900;    -1.02995;1.00000
 84.27177;12.79600;    -1.02759;1.00000
 84.44209;12.81300;    -1.02889;1.00000
 84.61253;12.83000;    -1.03031;1.00000
 84.78331;12.84700;    -1.03082;1.00000
 84.95428;12.86400;    -1.03327;1.00000
 85.12557;12.88100;    -1.03368;1.00000
 85.29685;12.89800;    -1.03311;1.00000
 85.46804;12.91500;    -1.03250;1.00000
 85.63920;12.93200;    -1.03425;1.00000
 85.81005;12.94900;    -1.03731;1.00000
 85.98048;12.96600;    -1.04063;1.00000
 86.15078;12.98300;    -1.04136;1.00000
 86.32121;13.00000;    -1.04058;1.00000
 86.49183;13.01700;    -1.03919;1.00000
 86.66288;13.03400;    -1.03731;1.00000
 86.83407;13.05100;    -1.03605;1.00000
 87.00498;13.06800;    -1.03350;1.00000
 87.17573;13.08500;    -1.03368;1.00000
 87.34681;13.10200;    -1.03408;1.00000
 87.51786;13.11900;    -1.03910;1.00000
 87.68899;13.13600;    -1.04515;1.00000
 87.86038;13.15300;    -1.04682;1.00000
 88.03209;13.17000;    -1.04718;1.00000
 88.20376;13.18700;    -1.04631;1.00000
 88.37542;13.20400;    -1.04558;1.00000
 88.54661;13.22100;    -1.04549;1.00000
 88.71705;13.23800;    -1.04503;1.00000
 88.88704;13.25500;    -1.04610;1.00000
 89.05691;13.27200;    -1.04637;1.00000
 89.22654;13.28900;    -1.04606;1.00000
 89.39606;13.30600;    -1.04495;1.00000
 89.56556;13.32300;    -1.04092;1.00000
 89.73514;13.34000;    -1.04090;1.00000
 89.90459;13.35700;    -1.04096;1.00000
 90.07403;13.37400;    -1.04453;1.00000
 90.24326;13.39100;    -1.04357;1.00000
 90.41265;13.40800;    -1.04500;1.00000
 90.58235;13.42500;    -1.04806;1.00000
 90.75217;13.44200;    -1.04744;1.00000
 90.92209;13.45900;    -1.04738;1.00000
 91.09203;13.47600;    -1.04604;1.00000
 91.26188;13.49300;    -1.04406;1.00000
 91.43169;13.51000;    -1.04395;1.00000
 91.60171;13.52700;    -1.04397;1.00000
 91.77177;13.54400;    -1.04481;1.00000
 91.94229;13.56100;    -1.04750;1.00000
 92.11292;13.57800;    -1.04819;1.00000
 92.28364;13.59500;    -1.04803;1.00000
 92.45455;13.61200;    -1.04975;1.00000
 92.62562;13.62900;    -1.05145;1.00000
 92.79688;13.64600;    -1.05341;1.00000
 92.96820;13.66300;    -1.05561;1.00000
 93.13975;13.68000;    -1.05730;1.00000
 93.31133;13.69700;    -1.06038;1.00000
 93.48280;13.71400;    -1.06104;1.00000
 93.65410;13.73100;    -1.06206;1.00000
 93.82536;13.74800;    -1.06183;1.00000
 93.99614;13.76500;    -1.06459;1.00000
 94.16669;13.78200;    -1.06635;1.00000
 94.33729;13.79900;    -1.06417;1.00000
 94.50772;13.81600;    -1.05739;1.00000
 94.67802;13.83300;    -1.05505;1.00000
 94.84836;13.85000;    -1.05466;1.00000
 95.01842;13.86700;    -1.05645;1.00000
 95.18831;13.88400;    -1.05633;1.00000
 95.35801;13.90100;    -1.05737;1.00000
 95.52757;13.91800;    -1.05886;1.00000
 95.69732;13.93500;    -1.05845;1.00000
 95.86704;13.95200;    -1.05753;1.00000
 96.03669;13.96900;    -1.05446;1.00000
 96.20648;13.98600;    -1.05328;1.00000
 96.37639;14.00300;    -1.05253;1.00000
 96.54646;14.02000;    -1.05244;1.00000
 96.71652;14.03700;    -1.05337;1.00000
 96.88667;14.05400;    -1.05427;1.00000
 97.05710;14.07100;    -1.05439;1.00000
 97.22770;14.08800;    -1.05296;1.00000
 97.39881;14.10500;    -1.05484;1.00000
 97.57036;14.12200;    -1.05893;1.00000
 97.74196;14.13900;    -1.06496;1.00000
 97.91367;14.15600;    -1.06710;1.00000
 98.08536;14.17300;    -1.06796;1.00000
 98.25681;14.19000;    -1.07034;1.00000
 98.42796;14.20700;    -1.07232;1.00000
 98.59904;14.22400;    -1.07172;1.00000
 98.76965;14.24100;    -1.07109;1.00000
 98.94001;14.25800;    -1.06976;1.00000
 99.11012;14.27500;    -1.06471;1.00000
 99.27992;14.29200;    -1.06052;1.00000
 99.44953;14.30900;    -1.05670;1.00000
 99.61909;14.32600;    -1.05601;1.00000
 99.78861;14.34300;    -1.05853;1.00000
 99.95815;14.36000;    -1.05791;1.00000
100.12782;14.37700;    -1.05735;1.00000
100.29759;14.39400;    -1.05703;1.00000
100.46771;14.41100;    -1.05886;1.00000
100.63840;14.42800;    -1.06179;1.00000
100.80922;14.44500;    -1.06412;1.00000
100.98032;14.46200;    -1.06227;1.00000
101.15142;14.47900;    -1.06108;1.00000
101.32242;14.49600;    -1.06159;1.00000
101.49332;14.51300;    -1.06633;1.00000
101.66385;14.53000;    -1.06934;1.00000
101.83414;14.54700;    -1.07249;1.00000
102.00426;14.56400;    -1.07342;1.00000
102.17467;14.58100;    -1.07075;1.00000
102.34511;14.59800;    -1.06415;1.00000
102.51557;14.61500;    -1.05778;1.00000
102.68605;14.63200;    -1.05685;1.00000
102.85640;14.64900;    -1.05833;1.00000
103.02648;14.66600;    -1.05930;1.00000
103.19632;14.68300;    -1.06016;1.00000
103.36621;14.70000;    -1.06276;1.00000
103.53600;14.71700;    -1.06644;1.00000
103.70600;14.73400;    -1.06975;1.00000
103.87597;14.75100;    -1.07148;1.00000
104.04585;14.76800;    -1.06808;1.00000
104.21531;14.78500;    -1.06282;1.00000
104.38441;14.80200;    -1.05854;1.00000
104.55296;14.81900;    -1.05812;1.00000
104.72113;14.83600;    -1.05761;1.00000
104.88918;14.85300;    -1.05678;1.00000
105.05737;14.87000;    -1.05604;1.00000
105.22594;14.88700;    -1.05431;1.00000
105.39504;14.90400;    -1.05141;1.00000
105.56451;14.92100;    -1.04500;1.00000
105.73414;14.93800;    -1.03983;1.00000
105.90390;14.95500;    -1.04380;1.00000
106.07374;14.97200;    -1.05113;1.00000
106.24347;14.98900;    -1.05608;1.00000
106.41352;15.00600;    -1.05984;1.00000
106.58393;15.02300;    -1.06309;1.00000
106.75444;15.04000;    -1.06620;1.00000
106.92522;15.05700;    -1.06698;1.00000
107.09585;15.07400;    -1.06342;1.00000
107.26645;15.09100;    -1.05890;1.00000
107.43671;15.10800;    -1.05636;1.00000
107.60680;15.12500;    -1.05716;1.00000
107.77674;15.14200;    -1.05547;1.00000
107.94655;15.15900;    -1.05491;1.00000
108.11655;15.17600;    -1.05588;1.00000
108.28640;15.19300;    -1.05702;1.00000
108.45645;15.21000;    -1.05923;1.00000
108.62658;15.22700;    -1.06626;1.00000
108.79653;15.24400;    -1.08045;1.00000
108.96628;15.26100;    -1.08638;1.00000
109.13603;15.27800;    -1.07690;1.00000
109.30558;15.29500;    -1.06463;1.00000
109.47523;15.31200;    -1.05586;1.00000
109.64513;15.32900;    -1.05123;1.00000
109.81514;15.34600;    -1.04945;1.00000
109.98528;15.36300;    -1.04804;1.00000
110.15561;15.38000;    -1.04737;1.00000
110.32612;15.39700;    -1.04919;1.00000
110.49659;15.41400;    -1.05180;1.00000
110.66691;15.43100;    -1.05734;1.00000
110.83715;15.44800;    -1.06123;1.00000
111.00754;15.46500;    -1.06322;1.00000
111.17809;15.48200;    -1.06382;1.00000
111.34889;15.49900;    -1.06348;1.00000
111.52004;15.51600;    -1.06277;1.00000
111.69121;15.53300;    -1.05947;1.00000
111.86251;15.55000;    -1.05780;1.00000
112.03336;15.56700;    -1.05731;1.00000
112.20403;15.58400;    -1.05761;1.00000
112.37431;15.60100;    -1.05987;1.00000
112.54448;15.61800;    -1.06397;1.00000
112.71476;15.63500;    -1.06717;1.00000
112.88532;15.65200;    -1.06788;1.00000
113.05591;15.66900;    -1.06513;1.00000
113.22630;15.68600;    -1.05977;1.00000
113.39665;15.70300;    -1.05511;1.00000
113.56646;15.72000;    -1.05463;1.00000
113.73574;15.73700;    -1.05681;1.00000
113.90444;15.75400;    -1.05918;1.00000
114.07329;15.77100;    -1.05974;1.00000
114.24246;15.78800;    -1.05870;1.00000
114.41225;15.80500;    -1.05842;1.00000
114.58226;15.82200;    -1.05514;1.00000
114.75236;15.83900;    -1.05149;1.00000
114.92264;15.85600;    -1.05058;1.00000
115.09310;15.87300;    -1.05170;1.00000
115.26391;15.89000;    -1.05762;1.00000
115.43478;15.90700;    -1.06090;1.00000
115.60591;15.92400;    -1.06333;1.00000
115.77743;15.94100;    -1.06475;1.00000
115.94924;15.95800;    -1.06709;1.00000
116.12113;15.97500;    -1.06859;1.00000
116.29275;15.99200;    -1.06921;1.00000
116.46399;16.00900;    -1.07125;1.00000
116.63480;16.02600;    -1.07268;1.00000
116.80527;16.04300;    -1.07305;1.00000
116.97526;16.06000;    -1.07011;1.00000
117.14502;16.07700;    -1.06714;1.00000
117.31424;16.09400;    -1.06477;1.00000
117.48336;16.11100;    -1.06246;1.00000
117.65244;16.12800;    -1.05968;1.00000
117.82160;16.14500;    -1.05661;1.00000
117.99043;16.16200;    -1.05601;1.00000
118.15932;16.17900;    -1.05457;1.00000
118.32810;16.19600;    -1.05487;1.00000
118.49693;16.21300;    -1.05611;1.00000
118.66595;16.23000;    -1.05968;1.00000
118.83512;16.24700;    -1.06169;1.00000
119.00467;16.26400;    -1.06044;1.00000
119.17437;16.28100;    -1.05999;1.00000
119.34418;16.29800;    -1.05994;1.00000
119.51394;16.31500;    -1.05781;1.00000
119.68365;16.33200;    -1.05752;1.00000
119.85321;16.34900;    -1.05881;1.00000
120.02303;16.36600;    -1.06158;1.00000
120.19332;16.38300;    -1.06416;1.00000
120.36411;16.40000;    -1.06657;1.00000
120.53521;16.41700;    -1.06533;1.00000
120.70655;16.43400;    -1.06341;1.00000
120.87780;16.45100;    -1.06210;1.00000
121.04883;16.46800;    -1.06651;1.00000
121.21978;16.48500;    -1.07302;1.00000
121.39063;16.50200;    -1.07857;1.00000
121.56172;16.51900;    -1.07989;1.00000
121.73276;16.53600;    -1.07908;1.00000
121.90375;16.55300;    -1.07415;1.00000
122.07433;16.57000;    -1.06794;1.00000
122.24435;16.58700;    -1.06750;1.00000
122.41377;16.60400;    -1.06898;1.00000
122.58257;16.62100;    -1.07071;1.00000
122.75089;16.63800;    -1.06965;1.00000
122.91912;16.65500;    -1.06694;1.00000
123.08765;16.67200;    -1.06274;1.00000
123.25596;16.68900;    -1.05969;1.00000
123.42439;16.70600;    -1.05568;1.00000
123.59267;16.72300;    -1.05563;1.00000
123.76081;16.74000;    -1.05473;1.00000
123.92933;16.75700;    -1.05564;1.00000
124.09823;16.77400;    -1.05798;1.00000
124.26739;16.79100;    -1.05888;1.00000
124.43679;16.80800;    -1.06038;1.00000
124.60643;16.82500;    -1.06114;1.00000
124.77622;16.84200;    -1.06257;1.00000
124.94616;16.85900;    -1.06496;1.00000
125.11637;16.87600;    -1.06855;1.00000
125.28669;16.89300;    -1.06939;1.00000
125.45690;16.91000;    -1.07061;1.00000
125.62723;16.92700;    -1.07036;1.00000
125.79759;16.94400;    -1.07359;1.00000
125.96779;16.96100;    -1.07574;1.00000
126.13819;16.97800;    -1.07729;1.00000
126.30851;16.99500;    -1.07705;1.00000
126.47884;17.01200;    -1.07688;1.00000
126.64935;17.02900;    -1.07704;1.00000
126.81962;17.04600;    -1.07628;1.00000
126.98994;17.06300;    -1.07629;1.00000
127.16012;17.08000;    -1.07712;1.00000
127.33015;17.09700;    -1.07886;1.00000
127.50011;17.11400;    -1.07935;1.00000
127.67030;17.13100;    -1.07767;1.00000
127.84054;17.14800;    -1.06684;1.00000
128.01097;17.16500;    -1.06171;1.00000
128.18149;17.18200;    -1.06156;1.00000
128.35193;17.19900;    -1.06672;1.00000
128.52232;17.21600;    -1.07110;1.00000
128.69275;17.23300;    -1.07342;1.00000
128.86348;17.25000;    -1.07704;1.00000
129.03412;17.26700;    -1.08332;1.00000
129.20490;17.28400;    -1.08711;1.00000
129.37562;17.30100;    -1.08730;1.00000
129.54666;17.31800;    -1.08519;1.00000
129.71782;17.33500;    -1.08278;1.00000
129.88921;17.35200;    -1.08336;1.00000
130.06050;17.36900;    -1.08272;1.00000
130.23158;17.38600;    -1.08256;1.00000
130.40247;17.40300;    -1.07988;1.00000
130.57308;17.42000;    -1.08094;1.00000
130.74333;17.43700;    -1.08298;1.00000
130.91326;17.45400;    -1.08449;1.00000
131.08313;17.47100;    -1.08318;1.00000
131.25281;17.48800;    -1.08189;1.00000
131.42243;17.50500;    -1.07715;1.00000
131.59207;17.52200;    -1.07213;1.00000
131.76152;17.53900;    -1.06715;1.00000
131.93079;17.55600;    -1.06470;1.00000
132.09991;17.57300;    -1.06599;1.00000
132.26875;17.59000;    -1.06762;1.00000
132.43760;17.60700;    -1.07075;1.00000
132.60689;17.62400;    -1.07448;1.00000
132.77644;17.64100;    -1.07700;1.00000
132.94649;17.65800;    -1.08092;1.00000
133.11696;17.67500;    -1.08172;1.00000
133.28767;17.69200;    -1.08130;1.00000
133.45838;17.70900;    -1.08016;1.00000
133.62895;17.72600;    -1.08012;1.00000
133.79940;17.74300;    -1.08169;1.00000
133.96983;17.76000;    -1.08239;1.00000
134.14055;17.77700;    -1.08396;1.00000
134.31128;17.79400;    -1.08330;1.00000
134.48211;17.81100;    -1.07900;1.00000
134.65288;17.82800;    -1.07786;1.00000
134.82325;17.84500;    -1.07787;1.00000
134.99325;17.86200;    -1.07842;1.00000
135.16301;17.87900;    -1.07960;1.00000
135.33252;17.89600;    -1.07955;1.00000
135.50214;17.91300;    -1.07852;1.00000
135.67207;17.93000;    -1.07699;1.00000
135.84218;17.94700;    -1.07628;1.00000
136.01237;17.96400;    -1.07506;1.00000
136.18244;17.98100;    -1.07349;1.00000
136.35249;17.99800;    -1.07162;1.00000
136.52250;18.01500;    -1.07123;1.00000
136.69257;18.03200;    -1.07458;1.00000
136.86268;18.04900;    -1.07891;1.00000
137.03288;18.06600;    -1.08183;1.00000
137.20325;18.08300;    -1.08380;1.00000
137.37368;18.10000;    -1.08484;1.00000
137.54394;18.11700;    -1.08326;1.00000
137.71403;18.13400;    -1.08094;1.00000
137.88413;18.15100;    -1.07870;1.00000
138.05386;18.16800;    -1.07939;1.00000
138.22370;18.18500;    -1.07868;1.00000
138.39358;18.20200;    -1.07753;1.00000
138.56346;18.21900;    -1.07509;1.00000
138.73322;18.23600;    -1.07321;1.00000
138.90300;18.25300;    -1.07241;1.00000
139.07274;18.27000;    -1.07328;1.00000
139.24252;18.28700;    -1.07478;1.00000
139.41239;18.30400;    -1.07544;1.00000
139.58254;18.32100;    -1.07840;1.00000
139.75283;18.33800;    -1.07944;1.00000
139.92335;18.35500;    -1.07707;1.00000
140.09412;18.37200;    -1.07512;1.00000
140.26474;18.38900;    -1.07572;1.00000
140.43575;18.40600;    -1.07580;1.00000
140.60658;18.42300;    -1.07968;1.00000
140.77742;18.44000;    -1.08343;1.00000
140.94854;18.45700;    -1.08406;1.00000
141.11968;18.47400;    -1.08486;1.00000
141.29084;18.49100;    -1.08476;1.00000
141.46204;18.50800;    -1.08366;1.00000
141.63303;18.52500;    -1.08270;1.00000
141.80370;18.54200;    -1.08173;1.00000
141.97417;18.55900;    -1.08036;1.00000
142.14455;18.57600;    -1.07867;1.00000
142.31498;18.59300;    -1.07820;1.00000
142.48535;18.61000;    -1.07852;1.00000
142.65579;18.62700;    -1.07730;1.00000
142.82630;18.64400;    -1.07661;1.00000
142.99675;18.66100;    -1.07388;1.00000
143.16716;18.67800;    -1.07345;1.00000
143.33748;18.69500;    -1.07367;1.00000
143.50768;18.71200;    -1.07551;1.00000
143.67781;18.72900;    -1.07831;1.00000
143.84790;18.74600;    -1.07861;1.00000
144.01797;18.76300;    -1.07691;1.00000
144.18810;18.78000;    -1.07499;1.00000
144.35814;18.79700;    -1.07480;1.00000
144.52805;18.81400;    -1.07263;1.00000
144.69762;18.83100;    -1.06890;1.00000
144.86702;18.84800;    -1.06615;1.00000
145.03627;18.86500;    -1.06656;1.00000
145.20558;18.88200;    -1.06717;1.00000
145.37470;18.89900;    -1.06833;1.00000
145.54384;18.91600;    -1.06736;1.00000
145.71307;18.93300;    -1.06482;1.00000
145.88231;18.95000;    -1.06395;1.00000
146.05158;18.96700;    -1.06333;1.00000
146.22093;18.98400;    -1.06357;1.00000
146.39023;19.00100;    -1.06305;1.00000
146.55951;19.01800;    -1.06255;1.00000
146.72901;19.03500;    -1.06257;1.00000
146.89878;19.05200;    -1.06194;1.00000
147.06867;19.06900;    -1.06103;1.00000
147.23836;19.08600;    -1.06111;1.00000
147.40830;19.10300;    -1.06170;1.00000
147.57805;19.12000;    -1.06374;1.00000
147.74767;19.13700;    -1.06680;1.00000
147.91746;19.15400;    -1.06676;1.00000
148.08717;19.17100;    -1.06582;1.00000
148.25680;19.18800;    -1.06363;1.00000
148.42653;19.20500;    -1.06279;1.00000
148.59626;19.22200;    -1.06097;1.00000
148.76579;19.23900;    -1.05953;1.00000
148.93535;19.25600;    -1.05788;1.00000
149.10487;19.27300;    -1.05752;1.00000
149.27454;19.29000;    -1.05727;1.00000
149.44433;19.30700;    -1.05715;1.00000
149.61440;19.32400;    -1.05662;1.00000
149.78460;19.34100;    -1.05715;1.00000
149.95491;19.35800;    -1.05771;1.00000
150.12544;19.37500;    -1.05787;1.00000
150.29601;19.39200;    -1.05766;1.00000
150.46654;19.40900;    -1.05914;1.00000
150.63732;19.42600;    -1.06074;1.00000
150.80829;19.44300;    -1.06082;1.00000
150.97947;19.46000;    -1.06094;1.00000
151.15091;19.47700;    -1.06096;1.00000
151.32202;19.49400;    -1.05949;1.00000
151.49296;19.51100;    -1.05894;1.00000
151.66383;19.52800;    -1.05983;1.00000
151.83455;19.54500;    -1.06001;1.00000
152.00521;19.56200;    -1.06324;1.00000
152.17598;19.57900;    -1.05991;1.00000
152.34654;19.59600;    -1.05541;1.00000
152.51691;19.61300;    -1.04906;1.00000
152.68732;19.63000;    -1.04762;1.00000
152.85758;19.64700;    -1.04816;1.00000
153.02757;19.66400;    -1.04999;1.00000
153.19757;19.68100;    -1.05098;1.00000
153.36792;19.69800;    -1.04921;1.00000
153.53841;19.71500;    -1.04576;1.00000
153.70910;19.73200;    -1.04068;1.00000
153.87978;19.74900;    -1.03940;1.00000
154.05037;19.76600;    -1.04035;1.00000
154.22102;19.78300;    -1.04151;1.00000
154.39156;19.80000;    -1.04347;1.00000
154.56232;19.81700;    -1.04377;1.00000
154.73299;19.83400;    -1.04280;1.00000
154.90363;19.85100;    -1.04168;1.00000
155.07391;19.86800;    -1.03843;1.00000
155.24405;19.88500;    -1.03792;1.00000
155.41388;19.90200;    -1.03697;1.00000
155.58360;19.91900;    -1.03392;1.00000
155.75326;19.93600;    -1.03084;1.00000
155.92314;19.95300;    -1.02766;1.00000
156.09311;19.97000;    -1.02513;1.00000
156.26324;19.98700;    -1.02290;1.00000
156.43336;20.00400;    -1.02278;1.00000
156.60355;20.02100;    -1.02261;1.00000
156.77342;20.03800;    -1.02252;1.00000
156.94326;20.05500;    -1.02243;1.00000
157.11334;20.07200;    -1.02362;1.00000
157.28370;20.08900;    -1.02392;1.00000
157.45414;20.10600;    -1.02375;1.00000
157.62471;20.12300;    -1.01878;1.00000
157.79528;20.14000;    -1.01281;1.00000
157.96580;20.15700;    -1.01019;1.00000
158.13630;20.17400;    -1.01047;1.00000
158.30653;20.19100;    -1.01206;1.00000
158.47661;20.20800;    -1.01280;1.00000
158.64666;20.22500;    -1.01138;1.00000
158.81676;20.24200;    -1.00940;1.00000
158.98704;20.25900;    -1.00731;1.00000
159.15744;20.27600;    -1.00464;1.00000
159.32781;20.29300;    -1.00113;1.00000
159.49831;20.31000;    -0.99845;1.00000
159.66885;20.32700;    -0.99602;1.00000
159.83938;20.34400;    -0.99442;1.00000
160.00977;20.36100;    -0.99371;1.00000
160.18029;20.37800;    -0.99144;1.00000
160.35061;20.39500;    -0.99063;1.00000
160.52098;20.41200;    -0.99157;1.00000
160.69146;20.42900;    -0.99187;1.00000
160.86181;20.44600;    -0.98868;1.00000
161.03217;20.46300;    -0.98667;1.00000
161.20241;20.48000;    -0.98186;1.00000
161.37244;20.49700;    -0.98031;1.00000
161.54226;20.51400;    -0.97696;1.00000
161.71195;20.53100;    -0.97244;1.00000
161.88145;20.54800;    -0.96718;1.00000
162.05082;20.56500;    -0.96417;1.00000
162.22000;20.58200;    -0.96098;1.00000
162.38922;20.59900;    -0.95976;1.00000
162.55835;20.61600;    -0.95550;1.00000
162.72762;20.63300;    -0.95241;1.00000
162.89712;20.65000;    -0.94862;1.00000
163.06668;20.66700;    -0.94548;1.00000
163.23648;20.68400;    -0.94231;1.00000
163.40638;20.70100;    -0.93857;1.00000
163.57632;20.71800;    -0.93811;1.00000
163.74636;20.73500;    -0.93569;1.00000
163.91657;20.75200;    -0.93395;1.00000
164.08690;20.76900;    -0.93240;1.00000
164.25737;20.78600;    -0.93084;1.00000
164.42796;20.80300;    -0.92831;1.00000
164.59853;20.82000;    -0.92457;1.00000
164.76880;20.83700;    -0.92172;1.00000
164.93917;20.85400;    -0.91878;1.00000
165.10930;20.87100;    -0.91448;1.00000
165.27908;20.88800;    -0.91103;1.00000
165.44879;20.90500;    -0.90666;1.00000
165.61840;20.92200;    -0.90040;1.00000
165.78795;20.93900;    -0.89413;1.00000
165.95738;20.95600;    -0.88802;1.00000
166.12674;20.97300;    -0.88284;1.00000
166.29602;20.99000;    -0.87773;1.00000
166.46536;21.00700;    -0.87307;1.00000
166.63474;21.02400;    -0.86951;1.00000
166.80420;21.04100;    -0.86600;1.00000
166.97359;21.05800;    -0.86096;1.00000
167.14318;21.07500;    -0.85582;1.00000
167.31273;21.09200;    -0.85137;1.00000
167.48249;21.10900;    -0.84826;1.00000
167.65226;21.12600;    -0.84434;1.00000
167.82201;21.14300;    -0.83879;1.00000
167.99192;21.16000;    -0.83218;1.00000
168.16195;21.17700;    -0.82672;1.00000
168.33204;21.19400;    -0.82158;1.00000
168.50198;21.21100;    -0.81578;1.00000
168.67214;21.22800;    -0.81168;1.00000
168.84239;21.24500;    -0.80714;1.00000
169.01268;21.26200;    -0.80163;1.00000
169.18316;21.27900;    -0.79464;1.00000
169.35357;21.29600;    -0.78935;1.00000
169.52410;21.31300;    -0.78141;1.00000
169.69501;21.33000;    -0.77474;1.00000
169.86616;21.34700;    -0.76926;1.00000
170.03734;21.36400;    -0.76318;1.00000
170.20863;21.38100;    -0.75590;1.00000
170.37985;21.39800;    -0.74830;1.00000
170.55096;21.41500;    -0.74291;1.00000
170.72210;21.43200;    -0.73842;1.00000
170.89314;21.44900;    -0.73325;1.00000
171.06417;21.46600;    -0.72640;1.00000
171.23538;21.48300;    -0.71643;1.00000
171.40673;21.50000;    -0.70423;1.00000
171.57792;21.51700;    -0.69194;1.00000
171.74892;21.53400;    -0.68075;1.00000
171.91960;21.55100;    -0.67354;1.00000
172.09017;21.56800;    -0.66476;1.00000
172.26053;21.58500;    -0.65533;1.00000
172.43096;21.60200;    -0.64617;1.00000
172.60148;21.61900;    -0.63471;1.00000
172.77203;21.63600;    -0.62428;1.00000
172.94266;21.65300;    -0.61214;1.00000
173.11334;21.67000;    -0.60178;1.00000
173.28380;21.68700;    -0.58957;1.00000
173.45420;21.70400;    -0.57689;1.00000
173.62462;21.72100;    -0.56403;1.00000
173.79502;21.73800;    -0.55217;1.00000
173.96537;21.75500;    -0.54034;1.00000
174.13594;21.77200;    -0.52749;1.00000
174.30622;21.78900;    -0.51562;1.00000
174.47650;21.80600;    -0.50050;1.00000
174.64667;21.82300;    -0.48745;1.00000
174.81655;21.84000;    -0.47273;1.00000
174.98634;21.85700;    -0.45809;1.00000
175.15590;21.87400;    -0.44304;1.00000
175.32547;21.89100;    -0.42628;1.00000
175.49480;21.90800;    -0.40686;1.00000
175.66403;21.92500;    -0.39081;1.00000
175.83324;21.94200;    -0.37297;1.00000
176.00245;21.95900;    -0.35543;1.00000
176.17164;21.97600;    -0.33706;1.00000
176.34084;21.99300;    -0.31906;1.00000
176.51004;22.01000;    -0.30134;1.00000
176.67949;22.02700;    -0.28247;1.00000
176.84903;22.04400;    -0.26383;1.00000
177.01863;22.06100;    -0.24629;1.00000
177.18848;22.07800;    -0.22635;1.00000
177.35817;22.09500;    -0.20628;1.00000
177.52799;22.11200;    -0.18487;1.00000
177.69795;22.12900;    -0.16363;1.00000
177.86796;22.14600;    -0.14190;1.00000
178.03795;22.16300;    -0.11859;1.00000
178.20806;22.18000;-9.4798e-002;1.00000
178.37822;22.19700;-6.9796e-002;1.00000
178.54854;22.21400;-4.4850e-002;1.00000
178.71884;22.23100;-1.9492e-002;1.00000
178.88911;22.24800; 4.7936e-003;1.00000
179.05943;22.26500; 2.9219e-002;1.00000
179.22953;22.28200; 5.4935e-002;1.00000
179.39952;22.29900; 8.2028e-002;1.00000
179.56947;22.31600;     0.11154;1.00000
179.73950;22.33300;     0.14148;1.00000
179.90951;22.35000;     0.17159;1.00000
180.07938;22.36700;     0.20292;1.00000
180.24933;22.38400;     0.23874;1.00000
180.41918;22.40100;     0.27388;1.00000
180.58880;22.41800;     0.30779;1.00000
180.75835;22.43500;     0.34041;1.00000
180.92788;22.45200;     0.37369;1.00000
181.09735;22.46900;     0.40778;1.00000
181.26707;22.48600;     0.44425;1.00000
181.43712;22.50300;     0.48342;1.00000
181.60733;22.52000;     0.52276;1.00000
181.77751;22.53700;     0.56258;1.00000
181.94763;22.55400;     0.60428;1.00000
182.11779;22.57100;     0.64515;1.00000
182.28781;22.58800;     0.68499;1.00000
182.45786;22.60500;     0.72510;1.00000
182.62803;22.62200;     0.76933;1.00000
182.79810;22.63900;     0.81465;1.00000
182.96815;22.65600;     0.86301;1.00000
183.13825;22.67300;     0.91220;1.00000
183.30790;22.69000;     0.96230;1.00000
183.47753;22.70700;     1.01365;1.00000
183.64713;22.72400;     1.06827;1.00000
183.81669;22.74100;     1.12120;1.00000
183.98618;22.75800;     1.17611;1.00000
184.15577;22.77500;     1.23154;1.00000
184.32528;22.79200;     1.28988;1.00000
184.49497;22.80900;     1.34820;1.00000
184.66470;22.82600;     1.40828;1.00000
184.83440;22.84300;     1.46733;1.00000
185.00415;22.86000;     1.52921;1.00000
185.17409;22.87700;     1.59219;1.00000
185.34401;22.89400;     1.65641;1.00000
185.51413;22.91100;     1.72184;1.00000
185.68424;22.92800;     1.78956;1.00000
185.85431;22.94500;     1.85818;1.00000
186.02442;22.96200;     1.93053;1.00000
186.19472;22.97900;     2.00202;1.00000
186.36493;22.99600;     2.07668;1.00000
186.53511;23.01300;     2.15194;1.00000
186.70541;23.03000;     2.22957;1.00000
186.87565;23.04700;     2.30799;1.00000
187.04585;23.06400;     2.38780;1.00000
187.21604;23.08100;     2.47069;1.00000
187.38605;23.09800;     2.55407;1.00000
187.55590;23.11500;     2.63838;1.00000
187.72593;23.13200;     2.72655;1.00000
187.89592;23.14900;     2.81460;1.00000
188.06587;23.16600;     2.90448;1.00000
188.23577;23.18300;     2.99753;1.00000
188.40579;23.20000;     3.09157;1.00000
188.57557;23.21700;     3.18744;1.00000
188.74544;23.23400;     3.28470;1.00000
188.91535;23.25100;     3.38312;1.00000
189.08529;23.26800;     3.48271;1.00000
189.25520;23.28500;     3.58902;1.00000
189.42528;23.30200;     3.69528;1.00000
189.59546;23.31900;     3.80642;1.00000
189.76552;23.33600;     3.92138;1.00000
189.93571;23.35300;     4.04061;1.00000
190.10574;23.37000;     4.16547;1.00000
190.27594;23.38700;     4.29620;1.00000
190.44598;23.40400;     4.42776;1.00000
190.61597;23.42100;     4.56239;1.00000
190.78580;23.43800;     4.69941;1.00000
190.95556;23.45500;     4.83886;1.00000
191.12533;23.47200;     4.98358;1.00000
191.29514;23.48900;     5.12843;1.00000
191.46501;23.50600;     5.27328;1.00000
191.63500;23.52300;     5.41754;1.00000
191.80493;23.54000;     5.55745;1.00000
191.97476;23.55700;     5.69579;1.00000
192.14470;23.57400;     5.82830;1.00000
192.31450;23.59100;     5.95835;1.00000
192.48437;23.60800;     6.08202;1.00000
192.65437;23.62500;     6.20019;1.00000
192.82443;23.64200;     6.30963;1.00000
192.99438;23.65900;     6.41252;1.00000
193.16443;23.67600;     6.50465;1.00000
193.33448;23.69300;     6.58826;1.00000
193.50457;23.71000;     6.66012;1.00000
193.67466;23.72700;     6.72357;1.00000
193.84465;23.74400;     6.77570;1.00000
194.01471;23.76100;     6.81725;1.00000
194.18481;23.77800;     6.84721;1.00000
194.35484;23.79500;     6.86512;1.00000
194.52489;23.81200;     6.87262;1.00000
194.69506;23.82900;     6.87170;1.00000
194.86535;23.84600;     6.86080;1.00000
195.03562;23.86300;     6.83981;1.00000
195.20600;23.88000;     6.80862;1.00000
195.37634;23.89700;     6.76780;1.00000
195.54640;23.91400;     6.71937;1.00000
195.71641;23.93100;     6.66209;1.00000
195.88638;23.94800;     6.59890;1.00000
196.05646;23.96500;     6.53054;1.00000
196.22643;23.98200;     6.45570;1.00000
196.39638;23.99900;     6.37866;1.00000
196.56625;24.01600;     6.29656;1.00000
196.73609;24.03300;     6.21104;1.00000
196.90571;24.05000;     6.12123;1.00000
197.07503;24.06700;     6.02875;1.00000
197.24418;24.08400;     5.93418;1.00000
197.41334;24.10100;     5.83898;1.00000
197.58255;24.11800;     5.74216;1.00000
197.75168;24.13500;     5.64419;1.00000
197.92103;24.15200;     5.54702;1.00000
198.09037;24.16900;     5.45161;1.00000
198.25963;24.18600;     5.35463;1.00000
198.42905;24.20300;     5.25564;1.00000
198.59845;24.22000;     5.15656;1.00000
198.76793;24.23700;     5.05788;1.00000
198.93759;24.25400;     4.95983;1.00000
199.10748;24.27100;     4.86448;1.00000
199.27747;24.28800;     4.77218;1.00000
199.44751;24.30500;     4.68121;1.00000
199.61762;24.32200;     4.59051;1.00000
199.78759;24.33900;     4.50111;1.00000
199.95764;24.35600;     4.41237;1.00000
200.12752;24.37300;     4.32738;1.00000
200.29737;24.39000;     4.24406;1.00000
200.46707;24.40700;     4.16234;1.00000
200.63680;24.42400;     4.08093;1.00000
200.80640;24.44100;     4.00199;1.00000
200.97583;24.45800;     3.92541;1.00000
201.14522;24.47500;     3.84789;1.00000
201.31458;24.49200;     3.77285;1.00000
201.48405;24.50900;     3.69822;1.00000
201.65352;24.52600;     3.62816;1.00000
201.82304;24.54300;     3.55805;1.00000
201.99255;24.56000;     3.48677;1.00000
202.16221;24.57700;     3.41844;1.00000
202.33175;24.59400;     3.35029;1.00000
202.50127;24.61100;     3.28252;1.00000
202.67089;24.62800;     3.21676;1.00000
202.84050;24.64500;     3.15440;1.00000
203.01016;24.66200;     3.09287;1.00000
203.18007;24.67900;     3.03112;1.00000
203.35004;24.69600;     2.97284;1.00000
203.51985;24.71300;     2.91503;1.00000
203.68989;24.73000;     2.85767;1.00000
203.85977;24.74700;     2.80070;1.00000
204.02955;24.76400;     2.74413;1.00000
204.19946;24.78100;     2.68802;1.00000
204.36942;24.79800;     2.63298;1.00000
204.53938;24.81500;     2.58000;1.00000
204.70942;24.83200;     2.52894;1.00000
204.87938;24.84900;     2.48011;1.00000
205.04937;24.86600;     2.43156;1.00000
205.21937;24.88300;     2.38213;1.00000
205.38931;24.90000;     2.33338;1.00000
205.55910;24.91700;     2.28723;1.00000
205.72884;24.93400;     2.24234;1.00000
205.89857;24.95100;     2.19676;1.00000
206.06832;24.96800;     2.15361;1.00000
206.23802;24.98500;     2.10786;1.00000
206.40768;25.00200;     2.06319;1.00000
206.57735;25.01900;     2.02304;1.00000
206.74697;25.03600;     1.98145;1.00000
206.91670;25.05300;     1.93960;1.00000
207.08640;25.07000;     1.89902;1.00000
207.25606;25.08700;     1.85866;1.00000
207.42588;25.10400;     1.81906;1.00000
207.59586;25.12100;     1.77905;1.00000
207.76585;25.13800;     1.73976;1.00000
207.93605;25.15500;     1.69944;1.00000
208.10613;25.17200;     1.66059;1.00000
208.27615;25.18900;     1.62187;1.00000
208.44628;25.20600;     1.57982;1.00000
208.61622;25.22300;     1.53898;1.00000
208.78625;25.24000;     1.49560;1.00000
208.95619;25.25700;     1.45826;1.00000
209.12622;25.27400;     1.41993;1.00000
209.29600;25.29100;     1.38044;1.00000
209.46560;25.30800;     1.33991;1.00000
209.63515;25.32500;     1.29684;1.00000
209.80445;25.34200;     1.25378;1.00000
209.97369;25.35900;     1.21108;1.00000
210.14313;25.37600;     1.17230;1.00000
210.31270;25.39300;     1.13948;1.00000
210.48233;25.41000;     1.11902;1.00000
210.65206;25.42700;     1.10755;1.00000
210.82180;25.44400;     1.10084;1.00000
210.99162;25.46100;     1.09485;1.00000
211.16141;25.47800;     1.08308;1.00000
211.33134;25.49500;     1.06720;1.00000
211.50129;25.51200;     1.04949;1.00000
211.67112;25.52900;     1.03156;1.00000
211.84104;25.54600;     1.01157;1.00000
212.01096;25.56300;     0.99058;1.00000
212.18092;25.58000;     0.96926;1.00000
212.35081;25.59700;     0.94864;1.00000
212.52065;25.61400;     0.92639;1.00000
212.69043;25.63100;     0.90467;1.00000
212.86043;25.64800;     0.88242;1.00000
213.03011;25.66500;     0.85815;1.00000
213.19993;25.68200;     0.83200;1.00000
213.36967;25.69900;     0.80894;1.00000
213.53933;25.71600;     0.78660;1.00000
213.70918;25.73300;     0.76628;1.00000
213.87906;25.75000;     0.74458;1.00000
214.04881;25.76700;     0.72339;1.00000
214.21866;25.78400;     0.70337;1.00000
214.38854;25.80100;     0.68299;1.00000
214.55838;25.81800;     0.66167;1.00000
214.72830;25.83500;     0.64036;1.00000
214.89827;25.85200;     0.61964;1.00000
215.06819;25.86900;     0.59931;1.00000
215.23805;25.88600;     0.57793;1.00000
215.40803;25.90300;     0.55792;1.00000
215.57804;25.92000;     0.53761;1.00000
215.74781;25.93700;     0.51882;1.00000
215.91765;25.95400;     0.49949;1.00000
216.08763;25.97100;     0.48099;1.00000
216.25728;25.98800;     0.46281;1.00000
216.42704;26.00500;     0.44551;1.00000
216.59674;26.02200;     0.42778;1.00000
216.76645;26.03900;     0.40932;1.00000
216.93608;26.05600;     0.39216;1.00000
217.10589;26.07300;     0.37481;1.00000
217.27570;26.09000;     0.35771;1.00000
217.44548;26.10700;     0.33936;1.00000
217.61537;26.12400;     0.32127;1.00000
217.78541;26.14100;     0.30318;1.00000
217.95548;26.15800;     0.28490;1.00000
218.12569;26.17500;     0.26749;1.00000
218.29591;26.19200;     0.25386;1.00000
218.46620;26.20900;     0.23891;1.00000
218.63640;26.22600;     0.22271;1.00000
218.80669;26.24300;     0.20635;1.00000
218.97689;26.26000;     0.19051;1.00000
219.14714;26.27700;     0.17436;1.00000
219.31730;26.29400;     0.16013;1.00000
219.48749;26.31100;     0.14572;1.00000
219.65783;26.32800;     0.13131;1.00000
219.82811;26.34500;     0.11492;1.00000
219.99836;26.36200;     0.10078;1.00000
220.16867;26.37900; 8.6462e-002;1.00000
220.33896;26.39600; 7.1981e-002;1.00000
220.50931;26.41300; 5.7807e-002;1.00000
220.67977;26.43000; 4.1885e-002;1.00000
220.85009;26.44700; 3.0011e-002;1.00000
221.02026;26.46400; 1.6737e-002;1.00000
221.19068;26.48100; 2.7186e-003;1.00000
221.36097;26.49800;-9.1971e-003;1.00000
221.53121;26.51500;-2.2224e-002;1.00000
221.70138;26.53200;-3.5618e-002;1.00000
221.87142;26.54900;-4.6316e-002;1.00000
222.04147;26.56600;-5.9749e-002;1.00000
222.21150;26.58300;-7.1276e-002;1.00000
222.38153;26.60000;-8.2765e-002;1.00000
222.55134;26.61700;-9.4559e-002;1.00000
222.72111;26.63400;    -0.10562;1.00000
222.89086;26.65100;    -0.11723;1.00000
223.06052;26.66800;    -0.12834;1.00000
223.23015;26.68500;    -0.14062;1.00000
223.39959;26.70200;    -0.15118;1.00000
223.56911;26.71900;    -0.16246;1.00000
223.73880;26.73600;    -0.17338;1.00000
223.90834;26.75300;    -0.18373;1.00000
224.07796;26.77000;    -0.19379;1.00000
224.24753;26.78700;    -0.20442;1.00000
224.41706;26.80400;    -0.21417;1.00000
224.58661;26.82100;    -0.22405;1.00000
224.75623;26.83800;    -0.23702;1.00000
224.92583;26.85500;    -0.24709;1.00000
225.09556;26.87200;    -0.25651;1.00000
225.26532;26.88900;    -0.26530;1.00000
225.43525;26.90600;    -0.27572;1.00000
225.60531;26.92300;    -0.28517;1.00000
225.77518;26.94000;    -0.29546;1.00000
225.94514;26.95700;    -0.30564;1.00000
226.11510;26.97400;    -0.31503;1.00000
226.28489;26.99100;    -0.32569;1.00000
226.45476;27.00800;    -0.33358;1.00000
226.62473;27.02500;    -0.34343;1.00000
226.79454;27.04200;    -0.35162;1.00000
226.96447;27.05900;    -0.36087;1.00000
227.13453;27.07600;    -0.36835;1.00000
227.30447;27.09300;    -0.37411;1.00000
227.47448;27.11000;    -0.38178;1.00000
227.64447;27.12700;    -0.38971;1.00000
227.81449;27.14400;    -0.39879;1.00000
227.98458;27.16100;    -0.40785;1.00000
228.15482;27.17800;    -0.41731;1.00000
228.32507;27.19500;    -0.42565;1.00000
228.49537;27.21200;    -0.43528;1.00000
228.66582;27.22900;    -0.44116;1.00000
228.83616;27.24600;    -0.44886;1.00000
229.00643;27.26300;    -0.45667;1.00000
229.17669;27.28000;    -0.46396;1.00000
229.34684;27.29700;    -0.47037;1.00000
229.51698;27.31400;    -0.47647;1.00000
229.68710;27.33100;    -0.48235;1.00000
229.85719;27.34800;    -0.48783;1.00000
230.02713;27.36500;    -0.49346;1.00000
230.19729;27.38200;    -0.49936;1.00000
230.36728;27.39900;    -0.50585;1.00000
230.53714;27.41600;    -0.51193;1.00000
230.70706;27.43300;    -0.51874;1.00000
230.87698;27.45000;    -0.52504;1.00000
231.04685;27.46700;    -0.53106;1.00000
231.21670;27.48400;    -0.53668;1.00000
231.38662;27.50100;    -0.54089;1.00000
231.55662;27.51800;    -0.54696;1.00000
231.72658;27.53500;    -0.55133;1.00000
231.89663;27.55200;    -0.55562;1.00000
232.06653;27.56900;    -0.55913;1.00000
232.23644;27.58600;    -0.56652;1.00000
232.40645;27.60300;    -0.57215;1.00000
232.57648;27.62000;    -0.57788;1.00000
232.74647;27.63700;    -0.58317;1.00000
232.91659;27.65400;    -0.58651;1.00000
233.08661;27.67100;    -0.59237;1.00000
233.25662;27.68800;    -0.59697;1.00000
233.42663;27.70500;    -0.60160;1.00000
233.59662;27.72200;    -0.60632;1.00000
233.76658;27.73900;    -0.60964;1.00000
233.93663;27.75600;    -0.61242;1.00000
234.10658;27.77300;    -0.61597;1.00000
234.27651;27.79000;    -0.61988;1.00000
234.44647;27.80700;    -0.62120;1.00000
234.61659;27.82400;    -0.62620;1.00000
234.78652;27.84100;    -0.62947;1.00000
234.95652;27.85800;    -0.63280;1.00000
235.12674;27.87500;    -0.63644;1.00000
235.29675;27.89200;    -0.64163;1.00000
235.46682;27.90900;    -0.64367;1.00000
235.63687;27.92600;    -0.65049;1.00000
235.80683;27.94300;    -0.65419;1.00000
235.97678;27.96000;    -0.65634;1.00000
236.14685;27.97700;    -0.65888;1.00000
236.31686;27.99400;    -0.66127;1.00000
236.48690;28.01100;    -0.66270;1.00000
236.65685;28.02800;    -0.66345;1.00000
236.82675;28.04500;    -0.66561;1.00000
236.99667;28.06200;    -0.66793;1.00000
237.16656;28.07900;    -0.67159;1.00000
237.33648;28.09600;    -0.67451;1.00000
237.50634;28.11300;    -0.67773;1.00000
237.67630;28.13000;    -0.68156;1.00000
237.84634;28.14700;    -0.68325;1.00000
238.01611;28.16400;    -0.68382;1.00000
238.18614;28.18100;    -0.68414;1.00000
238.35619;28.19800;    -0.68540;1.00000
238.52600;28.21500;    -0.68740;1.00000
238.69603;28.23200;    -0.68929;1.00000
238.86606;28.24900;    -0.69150;1.00000
239.03604;28.26600;    -0.69363;1.00000
239.20606;28.28300;    -0.69683;1.00000
239.37615;28.30000;    -0.69937;1.00000
239.54633;28.31700;    -0.70212;1.00000
239.71658;28.33400;    -0.70435;1.00000
239.88689;28.35100;    -0.70522;1.00000
240.05711;28.36800;    -0.70564;1.00000
240.22730;28.38500;    -0.70525;1.00000
240.39730;28.40200;    -0.70567;1.00000
240.56736;28.41900;    -0.70881;1.00000
240.73735;28.43600;    -0.71014;1.00000
240.90741;28.45300;    -0.71097;1.00000
241.07754;28.47000;    -0.71077;1.00000
241.24767;28.48700;    -0.71105;1.00000
241.41780;28.50400;    -0.71186;1.00000
241.58803;28.52100;    -0.71237;1.00000
241.75819;28.53800;    -0.71434;1.00000
241.92852;28.55500;    -0.71657;1.00000
242.09887;28.57200;    -0.71855;1.00000
242.26908;28.58900;    -0.72028;1.00000
242.43954;28.60600;    -0.72064;1.00000
242.60989;28.62300;    -0.72203;1.00000
242.78026;28.64000;    -0.72264;1.00000
242.95076;28.65700;    -0.72269;1.00000
243.12113;28.67400;    -0.72298;1.00000
243.29130;28.69100;    -0.72200;1.00000
243.46162;28.70800;    -0.72057;1.00000
243.63166;28.72500;    -0.72152;1.00000
243.80165;28.74200;    -0.72159;1.00000
243.97156;28.75900;    -0.72253;1.00000
244.14144;28.77600;    -0.72317;1.00000
244.31140;28.79300;    -0.72303;1.00000
244.48136;28.81000;    -0.72314;1.00000
244.65148;28.82700;    -0.72231;1.00000
244.82146;28.84400;    -0.72161;1.00000
244.99148;28.86100;    -0.72194;1.00000
245.16166;28.87800;    -0.72150;1.00000
245.33177;28.89500;    -0.72189;1.00000
245.50190;28.91200;    -0.72329;1.00000
245.67207;28.92900;    -0.72459;1.00000
245.84244;28.94600;    -0.72454;1.00000
246.01279;28.96300;    -0.72521;1.00000
246.18313;28.98000;    -0.72529;1.00000
246.35347;28.99700;    -0.72510;1.00000
246.52373;29.01400;    -0.72581;1.00000
246.69400;29.03100;    -0.72664;1.00000
246.86419;29.04800;    -0.72773;1.00000
247.03420;29.06500;    -0.72643;1.00000
247.20415;29.08200;    -0.72523;1.00000
247.37420;29.09900;    -0.72636;1.00000
247.54409;29.11600;    -0.72544;1.00000
247.71414;29.13300;    -0.72354;1.00000
247.88408;29.15000;    -0.72179;1.00000
248.05386;29.16700;    -0.72024;1.00000
248.22380;29.18400;    -0.71887;1.00000
248.39361;29.20100;    -0.71825;1.00000
248.56347;29.21800;    -0.72006;1.00000
248.73327;29.23500;    -0.72120;1.00000
248.90311;29.25200;    -0.72153;1.00000
249.07296;29.26900;    -0.72028;1.00000
249.24291;29.28600;    -0.71977;1.00000
249.41287;29.30300;    -0.71907;1.00000
249.58278;29.32000;    -0.71960;1.00000
249.75267;29.33700;    -0.71966;1.00000
249.92264;29.35400;    -0.71906;1.00000
250.09272;29.37100;    -0.71633;1.00000
250.26276;29.38800;    -0.71574;1.00000
250.43306;29.40500;    -0.71583;1.00000
250.60347;29.42200;    -0.71754;1.00000
250.77371;29.43900;    -0.71902;1.00000
250.94423;29.45600;    -0.71892;1.00000
251.11506;29.47300;    -0.71853;1.00000
251.28580;29.49000;    -0.71779;1.00000
251.45651;29.50700;    -0.71574;1.00000

