#EXPORTTYPE:DATA SINGLE
#FORMAT:NETZSCH5
#FTYPE:ANSI
#IDENTITY:001922
#DECIMAL:POINT
#SEPARATOR:SEMICOLON
#TEMPCAL:TCALZERO.TMX
#SENSITIVITY:SENSZERO.EXX
#SAMPLE:bline
#SAMPLE MASS /mg:6.17
#MATERIAL:íåò
#REFERENCE:
#REFERENCE MASS /mg:0
#TYPE OF CRUCIBLE:Pan Al, closed
#SAMPLE CRUCIBLE MASS /mg:0
#REFERENCE CRUCIBLE MASS /mg:0
#M.RANGE /µV:5000
#TAU-R:---
#CORR. CODE:020
#EXO:+1
#RANGE:-10°C/16,0(K/min)/250°C
#SEGMENT:S2/2
#SEG. 2:-10°C/16,0(K/min)/250°C

##Temp./°C;Time/min;DSC/(uV/mg);Sensit./(uV/mW)
 58.51510;11.00800;    -1.63808;1.00000
 58.69173;11.01900;    -1.63921;1.00000
 58.86799;11.03000;    -1.64045;1.00000
 59.04431;11.04100;    -1.64116;1.00000
 59.22070;11.05200;    -1.64173;1.00000
 59.39698;11.06300;    -1.64350;1.00000
 59.57323;11.07400;    -1.64152;1.00000
 59.74954;11.08500;    -1.64303;1.00000
 59.92582;11.09600;    -1.64575;1.00000
 60.10218;11.10700;    -1.64583;1.00000
 60.27855;11.11800;    -1.64596;1.00000
 60.45512;11.12900;    -1.64549;1.00000
 60.63124;11.14000;    -1.64464;1.00000
 60.80748;11.15100;    -1.64481;1.00000
 60.98347;11.16200;    -1.64310;1.00000
 61.15998;11.17300;    -1.64265;1.00000
 61.33710;11.18400;    -1.64451;1.00000
 61.51404;11.19500;    -1.64655;1.00000
 61.69100;11.20600;    -1.64717;1.00000
 61.86783;11.21700;    -1.64682;1.00000
 62.04464;11.22800;    -1.64732;1.00000
 62.22144;11.23900;    -1.64733;1.00000
 62.39824;11.25000;    -1.64752;1.00000
 62.57507;11.26100;    -1.64707;1.00000
 62.75180;11.27200;    -1.64760;1.00000
 62.92853;11.28300;    -1.64851;1.00000
 63.10527;11.29400;    -1.64883;1.00000
 63.28194;11.30500;    -1.64840;1.00000
 63.45884;11.31600;    -1.64807;1.00000
 63.63519;11.32700;    -1.64658;1.00000
 63.81149;11.33800;    -1.64800;1.00000
 63.98792;11.34900;    -1.64869;1.00000
 64.16441;11.36000;    -1.65004;1.00000
 64.34117;11.37100;    -1.65223;1.00000
 64.51790;11.38200;    -1.65219;1.00000
 64.69464;11.39300;    -1.65334;1.00000
 64.87136;11.40400;    -1.65470;1.00000
 65.04815;11.41500;    -1.65563;1.00000
 65.22492;11.42600;    -1.65583;1.00000
 65.40138;11.43700;    -1.65564;1.00000
 65.57789;11.44800;    -1.65473;1.00000
 65.75454;11.45900;    -1.65539;1.00000
 65.93105;11.47000;    -1.65615;1.00000
 66.10759;11.48100;    -1.65737;1.00000
 66.28414;11.49200;    -1.65555;1.00000
 66.46067;11.50300;    -1.65406;1.00000
 66.63708;11.51400;    -1.65308;1.00000
 66.81354;11.52500;    -1.65271;1.00000
 66.99010;11.53600;    -1.65369;1.00000
 67.16684;11.54700;    -1.65749;1.00000
 67.34349;11.55800;    -1.65706;1.00000
 67.51999;11.56900;    -1.65757;1.00000
 67.69655;11.58000;    -1.65710;1.00000
 67.87330;11.59100;    -1.65800;1.00000
 68.04992;11.60200;    -1.65793;1.00000
 68.22647;11.61300;    -1.65809;1.00000
 68.40322;11.62400;    -1.65905;1.00000
 68.57984;11.63500;    -1.66043;1.00000
 68.75627;11.64600;    -1.65785;1.00000
 68.93283;11.65700;    -1.65828;1.00000
 69.10950;11.66800;    -1.65765;1.00000
 69.28594;11.67900;    -1.65668;1.00000
 69.46250;11.69000;    -1.65666;1.00000
 69.63887;11.70100;    -1.65694;1.00000
 69.81543;11.71200;    -1.65708;1.00000
 69.99205;11.72300;    -1.65977;1.00000
 70.16848;11.73400;    -1.66010;1.00000
 70.34494;11.74500;    -1.66018;1.00000
 70.52146;11.75600;    -1.66024;1.00000
 70.69798;11.76700;    -1.66077;1.00000
 70.87435;11.77800;    -1.66065;1.00000
 71.05094;11.78900;    -1.66064;1.00000
 71.22747;11.80000;    -1.66104;1.00000
 71.40405;11.81100;    -1.66046;1.00000
 71.58067;11.82200;    -1.66148;1.00000
 71.75727;11.83300;    -1.66214;1.00000
 71.93380;11.84400;    -1.66304;1.00000
 72.11049;11.85500;    -1.66401;1.00000
 72.28728;11.86600;    -1.66618;1.00000
 72.46416;11.87700;    -1.66600;1.00000
 72.64125;11.88800;    -1.66623;1.00000
 72.81812;11.89900;    -1.66589;1.00000
 72.99509;11.91000;    -1.66632;1.00000
 73.17203;11.92100;    -1.66453;1.00000
 73.34888;11.93200;    -1.66399;1.00000
 73.52588;11.94300;    -1.66525;1.00000
 73.70287;11.95400;    -1.66472;1.00000
 73.87968;11.96500;    -1.66733;1.00000
 74.05655;11.97600;    -1.66644;1.00000
 74.23330;11.98700;    -1.66649;1.00000
 74.41002;11.99800;    -1.66549;1.00000
 74.58653;12.00900;    -1.66609;1.00000
 74.76298;12.02000;    -1.66532;1.00000
 74.93946;12.03100;    -1.66572;1.00000
 75.11580;12.04200;    -1.66535;1.00000
 75.29226;12.05300;    -1.66526;1.00000
 75.46874;12.06400;    -1.66454;1.00000
 75.64511;12.07500;    -1.66381;1.00000
 75.82155;12.08600;    -1.66344;1.00000
 75.99792;12.09700;    -1.66327;1.00000
 76.17435;12.10800;    -1.66328;1.00000
 76.35077;12.11900;    -1.66365;1.00000
 76.52711;12.13000;    -1.66348;1.00000
 76.70364;12.14100;    -1.66333;1.00000
 76.88012;12.15200;    -1.66411;1.00000
 77.05652;12.16300;    -1.66555;1.00000
 77.23292;12.17400;    -1.66574;1.00000
 77.40941;12.18500;    -1.66584;1.00000
 77.58594;12.19600;    -1.66485;1.00000
 77.76224;12.20700;    -1.66518;1.00000
 77.93869;12.21800;    -1.66637;1.00000
 78.11513;12.22900;    -1.66591;1.00000
 78.29155;12.24000;    -1.66552;1.00000
 78.46789;12.25100;    -1.66518;1.00000
 78.64421;12.26200;    -1.66504;1.00000
 78.82059;12.27300;    -1.66418;1.00000
 78.99690;12.28400;    -1.66370;1.00000
 79.17329;12.29500;    -1.66514;1.00000
 79.34985;12.30600;    -1.66505;1.00000
 79.52651;12.31700;    -1.66556;1.00000
 79.70302;12.32800;    -1.66650;1.00000
 79.87963;12.33900;    -1.66665;1.00000
 80.05630;12.35000;    -1.66715;1.00000
 80.23302;12.36100;    -1.66732;1.00000
 80.40966;12.37200;    -1.66773;1.00000
 80.58637;12.38300;    -1.66747;1.00000
 80.76309;12.39400;    -1.66712;1.00000
 80.93988;12.40500;    -1.66843;1.00000
 81.11664;12.41600;    -1.66882;1.00000
 81.29343;12.42700;    -1.66941;1.00000
 81.47016;12.43800;    -1.66951;1.00000
 81.64681;12.44900;    -1.66788;1.00000
 81.82338;12.46000;    -1.66852;1.00000
 81.99990;12.47100;    -1.66827;1.00000
 82.17638;12.48200;    -1.66709;1.00000
 82.35281;12.49300;    -1.66674;1.00000
 82.52926;12.50400;    -1.66674;1.00000
 82.70570;12.51500;    -1.66589;1.00000
 82.88214;12.52600;    -1.66565;1.00000
 83.05851;12.53700;    -1.66335;1.00000
 83.23489;12.54800;    -1.66302;1.00000
 83.41125;12.55900;    -1.66337;1.00000
 83.58763;12.57000;    -1.66537;1.00000
 83.76406;12.58100;    -1.66563;1.00000
 83.94042;12.59200;    -1.66573;1.00000
 84.11681;12.60300;    -1.66600;1.00000
 84.29326;12.61400;    -1.66695;1.00000
 84.46965;12.62500;    -1.66729;1.00000
 84.64613;12.63600;    -1.66743;1.00000
 84.82265;12.64700;    -1.66638;1.00000
 84.99909;12.65800;    -1.66661;1.00000
 85.17569;12.66900;    -1.66648;1.00000
 85.35217;12.68000;    -1.66729;1.00000
 85.52864;12.69100;    -1.66899;1.00000
 85.70526;12.70200;    -1.66949;1.00000
 85.88194;12.71300;    -1.66958;1.00000
 86.05853;12.72400;    -1.67031;1.00000
 86.23528;12.73500;    -1.67060;1.00000
 86.41202;12.74600;    -1.67005;1.00000
 86.58884;12.75700;    -1.67031;1.00000
 86.76557;12.76800;    -1.67398;1.00000
 86.94236;12.77900;    -1.67336;1.00000
 87.11904;12.79000;    -1.67426;1.00000
 87.29584;12.80100;    -1.67463;1.00000
 87.47243;12.81200;    -1.67487;1.00000
 87.64908;12.82300;    -1.67416;1.00000
 87.82585;12.83400;    -1.67350;1.00000
 88.00248;12.84500;    -1.67509;1.00000
 88.17899;12.85600;    -1.67453;1.00000
 88.35557;12.86700;    -1.67460;1.00000
 88.53216;12.87800;    -1.67565;1.00000
 88.70859;12.88900;    -1.67511;1.00000
 88.88502;12.90000;    -1.67441;1.00000
 89.06152;12.91100;    -1.67544;1.00000
 89.23806;12.92200;    -1.67597;1.00000
 89.41453;12.93300;    -1.67567;1.00000
 89.59095;12.94400;    -1.67384;1.00000
 89.76736;12.95500;    -1.67448;1.00000
 89.94370;12.96600;    -1.67587;1.00000
 90.11992;12.97700;    -1.67543;1.00000
 90.29621;12.98800;    -1.67448;1.00000
 90.47243;12.99900;    -1.67403;1.00000
 90.64872;13.01000;    -1.67457;1.00000
 90.82486;13.02100;    -1.67511;1.00000
 91.00111;13.03200;    -1.67510;1.00000
 91.17739;13.04300;    -1.67444;1.00000
 91.35352;13.05400;    -1.67421;1.00000
 91.52961;13.06500;    -1.67504;1.00000
 91.70595;13.07600;    -1.67676;1.00000
 91.88220;13.08700;    -1.67629;1.00000
 92.05849;13.09800;    -1.67615;1.00000
 92.23493;13.10900;    -1.67628;1.00000
 92.41137;13.12000;    -1.67522;1.00000
 92.58780;13.13100;    -1.67549;1.00000
 92.76432;13.14200;    -1.67628;1.00000
 92.94076;13.15300;    -1.67714;1.00000
 93.11711;13.16400;    -1.67815;1.00000
 93.29364;13.17500;    -1.67795;1.00000
 93.47001;13.18600;    -1.67879;1.00000
 93.64651;13.19700;    -1.67813;1.00000
 93.82295;13.20800;    -1.67823;1.00000
 93.99945;13.21900;    -1.67829;1.00000
 94.17577;13.23000;    -1.67870;1.00000
 94.35226;13.24100;    -1.67796;1.00000
 94.52861;13.25200;    -1.67828;1.00000
 94.70501;13.26300;    -1.67848;1.00000
 94.88155;13.27400;    -1.67906;1.00000
 95.05804;13.28500;    -1.67881;1.00000
 95.23446;13.29600;    -1.67860;1.00000
 95.41117;13.30700;    -1.67823;1.00000
 95.58789;13.31800;    -1.67887;1.00000
 95.76449;13.32900;    -1.67903;1.00000
 95.94120;13.34000;    -1.67947;1.00000
 96.11773;13.35100;    -1.67945;1.00000
 96.29421;13.36200;    -1.68042;1.00000
 96.47070;13.37300;    -1.68132;1.00000
 96.64715;13.38400;    -1.68200;1.00000
 96.82363;13.39500;    -1.68294;1.00000
 96.99991;13.40600;    -1.68197;1.00000
 97.17613;13.41700;    -1.68180;1.00000
 97.35241;13.42800;    -1.68137;1.00000
 97.52863;13.43900;    -1.67984;1.00000
 97.70482;13.45000;    -1.68031;1.00000
 97.88075;13.46100;    -1.67920;1.00000
 98.05667;13.47200;    -1.67902;1.00000
 98.23262;13.48300;    -1.67964;1.00000
 98.40867;13.49400;    -1.68033;1.00000
 98.58483;13.50500;    -1.68086;1.00000
 98.76104;13.51600;    -1.68160;1.00000
 98.93713;13.52700;    -1.68230;1.00000
 99.11327;13.53800;    -1.68177;1.00000
 99.28959;13.54900;    -1.68137;1.00000
 99.46596;13.56000;    -1.68224;1.00000
 99.64225;13.57100;    -1.68262;1.00000
 99.81845;13.58200;    -1.68313;1.00000
 99.99468;13.59300;    -1.68469;1.00000
100.17093;13.60400;    -1.68604;1.00000
100.34733;13.61500;    -1.68589;1.00000
100.52357;13.62600;    -1.68564;1.00000
100.69986;13.63700;    -1.68577;1.00000
100.87601;13.64800;    -1.68563;1.00000
101.05223;13.65900;    -1.68560;1.00000
101.22855;13.67000;    -1.68637;1.00000
101.40494;13.68100;    -1.68665;1.00000
101.58118;13.69200;    -1.68719;1.00000
101.75726;13.70300;    -1.68712;1.00000
101.93342;13.71400;    -1.68698;1.00000
102.10962;13.72500;    -1.68645;1.00000
102.28583;13.73600;    -1.68778;1.00000
102.46212;13.74700;    -1.68858;1.00000
102.63821;13.75800;    -1.68951;1.00000
102.81445;13.76900;    -1.68978;1.00000
102.99069;13.78000;    -1.69028;1.00000
103.16678;13.79100;    -1.69012;1.00000
103.34304;13.80200;    -1.68926;1.00000
103.51921;13.81300;    -1.68852;1.00000
103.69535;13.82400;    -1.68794;1.00000
103.87146;13.83500;    -1.68847;1.00000
104.04757;13.84600;    -1.68930;1.00000
104.22385;13.85700;    -1.68979;1.00000
104.40000;13.86800;    -1.69111;1.00000
104.57617;13.87900;    -1.69094;1.00000
104.75240;13.89000;    -1.69093;1.00000
104.92870;13.90100;    -1.69061;1.00000
105.10496;13.91200;    -1.69081;1.00000
105.28123;13.92300;    -1.69111;1.00000
105.45770;13.93400;    -1.69127;1.00000
105.63417;13.94500;    -1.69190;1.00000
105.81054;13.95600;    -1.69262;1.00000
105.98692;13.96700;    -1.69282;1.00000
106.16315;13.97800;    -1.69310;1.00000
106.33959;13.98900;    -1.69434;1.00000
106.51592;14.00000;    -1.69494;1.00000
106.69227;14.01100;    -1.69475;1.00000
106.86867;14.02200;    -1.69565;1.00000
107.04491;14.03300;    -1.69617;1.00000
107.22109;14.04400;    -1.69525;1.00000
107.39728;14.05500;    -1.69419;1.00000
107.57357;14.06600;    -1.69500;1.00000
107.74966;14.07700;    -1.69377;1.00000
107.92560;14.08800;    -1.69255;1.00000
108.10154;14.09900;    -1.69291;1.00000
108.27751;14.11000;    -1.69351;1.00000
108.45350;14.12100;    -1.69353;1.00000
108.62962;14.13200;    -1.69373;1.00000
108.80563;14.14300;    -1.69435;1.00000
108.98167;14.15400;    -1.69420;1.00000
109.15765;14.16500;    -1.69470;1.00000
109.33389;14.17600;    -1.69536;1.00000
109.51019;14.18700;    -1.69576;1.00000
109.68641;14.19800;    -1.69630;1.00000
109.86263;14.20900;    -1.69683;1.00000
110.03884;14.22000;    -1.69772;1.00000
110.21501;14.23100;    -1.69864;1.00000
110.39135;14.24200;    -1.69914;1.00000
110.56767;14.25300;    -1.69996;1.00000
110.74406;14.26400;    -1.70003;1.00000
110.92046;14.27500;    -1.70058;1.00000
111.09676;14.28600;    -1.70037;1.00000
111.27299;14.29700;    -1.70017;1.00000
111.44942;14.30800;    -1.69837;1.00000
111.62575;14.31900;    -1.69986;1.00000
111.80183;14.33000;    -1.70046;1.00000
111.97812;14.34100;    -1.70175;1.00000
112.15446;14.35200;    -1.70098;1.00000
112.33073;14.36300;    -1.70072;1.00000
112.50713;14.37400;    -1.70099;1.00000
112.68350;14.38500;    -1.70099;1.00000
112.85958;14.39600;    -1.70127;1.00000
113.03591;14.40700;    -1.70191;1.00000
113.21208;14.41800;    -1.70282;1.00000
113.38824;14.42900;    -1.70213;1.00000
113.56453;14.44000;    -1.70295;1.00000
113.74066;14.45100;    -1.70237;1.00000
113.91674;14.46200;    -1.70247;1.00000
114.09317;14.47300;    -1.70210;1.00000
114.26944;14.48400;    -1.70365;1.00000
114.44550;14.49500;    -1.70375;1.00000
114.62166;14.50600;    -1.70297;1.00000
114.79767;14.51700;    -1.70294;1.00000
114.97374;14.52800;    -1.70321;1.00000
115.14997;14.53900;    -1.70380;1.00000
115.32624;14.55000;    -1.70458;1.00000
115.50243;14.56100;    -1.70539;1.00000
115.67880;14.57200;    -1.70594;1.00000
115.85504;14.58300;    -1.70573;1.00000
116.03130;14.59400;    -1.70543;1.00000
116.20767;14.60500;    -1.70595;1.00000
116.38384;14.61600;    -1.70661;1.00000
116.56006;14.62700;    -1.70700;1.00000
116.73621;14.63800;    -1.70767;1.00000
116.91243;14.64900;    -1.70785;1.00000
117.08868;14.66000;    -1.70779;1.00000
117.26501;14.67100;    -1.70903;1.00000
117.44115;14.68200;    -1.71029;1.00000
117.61739;14.69300;    -1.71117;1.00000
117.79352;14.70400;    -1.71113;1.00000
117.96954;14.71500;    -1.71051;1.00000
118.14553;14.72600;    -1.71005;1.00000
118.32159;14.73700;    -1.70963;1.00000
118.49780;14.74800;    -1.70976;1.00000
118.67373;14.75900;    -1.71047;1.00000
118.84973;14.77000;    -1.71122;1.00000
119.02578;14.78100;    -1.70947;1.00000
119.20203;14.79200;    -1.70977;1.00000
119.37821;14.80300;    -1.70993;1.00000
119.55439;14.81400;    -1.71067;1.00000
119.73061;14.82500;    -1.71071;1.00000
119.90690;14.83600;    -1.71149;1.00000
120.08319;14.84700;    -1.71183;1.00000
120.25954;14.85800;    -1.71247;1.00000
120.43576;14.86900;    -1.71265;1.00000
120.61208;14.88000;    -1.71373;1.00000
120.78833;14.89100;    -1.71279;1.00000
120.96463;14.90200;    -1.71341;1.00000
121.14107;14.91300;    -1.71387;1.00000
121.31734;14.92400;    -1.71478;1.00000
121.49359;14.93500;    -1.71549;1.00000
121.66994;14.94600;    -1.71573;1.00000
121.84638;14.95700;    -1.71610;1.00000
122.02262;14.96800;    -1.71457;1.00000
122.19899;14.97900;    -1.71554;1.00000
122.37534;14.99000;    -1.71520;1.00000
122.55171;15.00100;    -1.71702;1.00000
122.72810;15.01200;    -1.71772;1.00000
122.90460;15.02300;    -1.71895;1.00000
123.08098;15.03400;    -1.71959;1.00000
123.25726;15.04500;    -1.72022;1.00000
123.43367;15.05600;    -1.72091;1.00000
123.61011;15.06700;    -1.72138;1.00000
123.78662;15.07800;    -1.72116;1.00000
123.96305;15.08900;    -1.72208;1.00000
124.13933;15.10000;    -1.72097;1.00000
124.31562;15.11100;    -1.72138;1.00000
124.49192;15.12200;    -1.72170;1.00000
124.66798;15.13300;    -1.72138;1.00000
124.84394;15.14400;    -1.72140;1.00000
125.01987;15.15500;    -1.72122;1.00000
125.19593;15.16600;    -1.72170;1.00000
125.37187;15.17700;    -1.72151;1.00000
125.54793;15.18800;    -1.72149;1.00000
125.72385;15.19900;    -1.72142;1.00000
125.89988;15.21000;    -1.72099;1.00000
126.07593;15.22100;    -1.71923;1.00000
126.25183;15.23200;    -1.71967;1.00000
126.42775;15.24300;    -1.71979;1.00000
126.60372;15.25400;    -1.72015;1.00000
126.77979;15.26500;    -1.72055;1.00000
126.95585;15.27600;    -1.72132;1.00000
127.13205;15.28700;    -1.72268;1.00000
127.30828;15.29800;    -1.72336;1.00000
127.48458;15.30900;    -1.72376;1.00000
127.66087;15.32000;    -1.72490;1.00000
127.83715;15.33100;    -1.72422;1.00000
128.01352;15.34200;    -1.72361;1.00000
128.18987;15.35300;    -1.72362;1.00000
128.36601;15.36400;    -1.72415;1.00000
128.54220;15.37500;    -1.72494;1.00000
128.71861;15.38600;    -1.72617;1.00000
128.89492;15.39700;    -1.72681;1.00000
129.07107;15.40800;    -1.72681;1.00000
129.24731;15.41900;    -1.72695;1.00000
129.42359;15.43000;    -1.72738;1.00000
129.59981;15.44100;    -1.72819;1.00000
129.77595;15.45200;    -1.72809;1.00000
129.95192;15.46300;    -1.72767;1.00000
130.12798;15.47400;    -1.72715;1.00000
130.30405;15.48500;    -1.72702;1.00000
130.48011;15.49600;    -1.72735;1.00000
130.65620;15.50700;    -1.72792;1.00000
130.83220;15.51800;    -1.72769;1.00000
131.00825;15.52900;    -1.72846;1.00000
131.18413;15.54000;    -1.72806;1.00000
131.36023;15.55100;    -1.72712;1.00000
131.53630;15.56200;    -1.72718;1.00000
131.71233;15.57300;    -1.72841;1.00000
131.88838;15.58400;    -1.72899;1.00000
132.06445;15.59500;    -1.72977;1.00000
132.24058;15.60600;    -1.73031;1.00000
132.41666;15.61700;    -1.73089;1.00000
132.59268;15.62800;    -1.73064;1.00000
132.76882;15.63900;    -1.73112;1.00000
132.94488;15.65000;    -1.73124;1.00000
133.12098;15.66100;    -1.73088;1.00000
133.29713;15.67200;    -1.73078;1.00000
133.47332;15.68300;    -1.72993;1.00000
133.64944;15.69400;    -1.73041;1.00000
133.82556;15.70500;    -1.73172;1.00000
134.00166;15.71600;    -1.73157;1.00000
134.17779;15.72700;    -1.73184;1.00000
134.35387;15.73800;    -1.73248;1.00000
134.52994;15.74900;    -1.73193;1.00000
134.70600;15.76000;    -1.73307;1.00000
134.88204;15.77100;    -1.73379;1.00000
135.05814;15.78200;    -1.73339;1.00000
135.23416;15.79300;    -1.73267;1.00000
135.41029;15.80400;    -1.73269;1.00000
135.58648;15.81500;    -1.73368;1.00000
135.76271;15.82600;    -1.73346;1.00000
135.93880;15.83700;    -1.73481;1.00000
136.11501;15.84800;    -1.73421;1.00000
136.29122;15.85900;    -1.73470;1.00000
136.46738;15.87000;    -1.73489;1.00000
136.64361;15.88100;    -1.73437;1.00000
136.81982;15.89200;    -1.73437;1.00000
136.99606;15.90300;    -1.73435;1.00000
137.17243;15.91400;    -1.73553;1.00000
137.34869;15.92500;    -1.73612;1.00000
137.52497;15.93600;    -1.73601;1.00000
137.70112;15.94700;    -1.73547;1.00000
137.87727;15.95800;    -1.73584;1.00000
138.05341;15.96900;    -1.73561;1.00000
138.22951;15.98000;    -1.73549;1.00000
138.40572;15.99100;    -1.73363;1.00000
138.58184;16.00200;    -1.73306;1.00000
138.75808;16.01300;    -1.73345;1.00000
138.93433;16.02400;    -1.73320;1.00000
139.11055;16.03500;    -1.73383;1.00000
139.28676;16.04600;    -1.73505;1.00000
139.46304;16.05700;    -1.73617;1.00000
139.63929;16.06800;    -1.73643;1.00000
139.81557;16.07900;    -1.73565;1.00000
139.99181;16.09000;    -1.73602;1.00000
140.16819;16.10100;    -1.73640;1.00000
140.34452;16.11200;    -1.73603;1.00000
140.52082;16.12300;    -1.73655;1.00000
140.69702;16.13400;    -1.73644;1.00000
140.87316;16.14500;    -1.73592;1.00000
141.04944;16.15600;    -1.73650;1.00000
141.22560;16.16700;    -1.73659;1.00000
141.40168;16.17800;    -1.73658;1.00000
141.57790;16.18900;    -1.73638;1.00000
141.75401;16.20000;    -1.73571;1.00000
141.93014;16.21100;    -1.73564;1.00000
142.10640;16.22200;    -1.73525;1.00000
142.28251;16.23300;    -1.73570;1.00000
142.45858;16.24400;    -1.73459;1.00000
142.63471;16.25500;    -1.73656;1.00000
142.81079;16.26600;    -1.73751;1.00000
142.98693;16.27700;    -1.73602;1.00000
143.16300;16.28800;    -1.73480;1.00000
143.33921;16.29900;    -1.73425;1.00000
143.51527;16.31000;    -1.73481;1.00000
143.69141;16.32100;    -1.73450;1.00000
143.86761;16.33200;    -1.73406;1.00000
144.04371;16.34300;    -1.73450;1.00000
144.21979;16.35400;    -1.73486;1.00000
144.39575;16.36500;    -1.73398;1.00000
144.57172;16.37600;    -1.73429;1.00000
144.74778;16.38700;    -1.73401;1.00000
144.92388;16.39800;    -1.73316;1.00000
145.09988;16.40900;    -1.73124;1.00000
145.27595;16.42000;    -1.73134;1.00000
145.45205;16.43100;    -1.73126;1.00000
145.62811;16.44200;    -1.73141;1.00000
145.80405;16.45300;    -1.73254;1.00000
145.98006;16.46400;    -1.73252;1.00000
146.15605;16.47500;    -1.73247;1.00000
146.33207;16.48600;    -1.73336;1.00000
146.50820;16.49700;    -1.73387;1.00000
146.68442;16.50800;    -1.73333;1.00000
146.86071;16.51900;    -1.73296;1.00000
147.03700;16.53000;    -1.73261;1.00000
147.21329;16.54100;    -1.73166;1.00000
147.38955;16.55200;    -1.73100;1.00000
147.56579;16.56300;    -1.73059;1.00000
147.74192;16.57400;    -1.73000;1.00000
147.91808;16.58500;    -1.73133;1.00000
148.09431;16.59600;    -1.73265;1.00000
148.27052;16.60700;    -1.73258;1.00000
148.44681;16.61800;    -1.73008;1.00000
148.62302;16.62900;    -1.72988;1.00000
148.79914;16.64000;    -1.72905;1.00000
148.97526;16.65100;    -1.72851;1.00000
149.15137;16.66200;    -1.72767;1.00000
149.32748;16.67300;    -1.72687;1.00000
149.50358;16.68400;    -1.72649;1.00000
149.67964;16.69500;    -1.72518;1.00000
149.85578;16.70600;    -1.72477;1.00000
150.03179;16.71700;    -1.72522;1.00000
150.20785;16.72800;    -1.72449;1.00000
150.38389;16.73900;    -1.72547;1.00000
150.55996;16.75000;    -1.72388;1.00000
150.73603;16.76100;    -1.72457;1.00000
150.91207;16.77200;    -1.72405;1.00000
151.08809;16.78300;    -1.72353;1.00000
151.26418;16.79400;    -1.72292;1.00000
151.44014;16.80500;    -1.72251;1.00000
151.61609;16.81600;    -1.72131;1.00000
151.79195;16.82700;    -1.72040;1.00000
151.96780;16.83800;    -1.72013;1.00000
152.14371;16.84900;    -1.71980;1.00000
152.31951;16.86000;    -1.71896;1.00000
152.49553;16.87100;    -1.71805;1.00000
152.67151;16.88200;    -1.71715;1.00000
152.84757;16.89300;    -1.71615;1.00000
153.02363;16.90400;    -1.71485;1.00000
153.19955;16.91500;    -1.71343;1.00000
153.37554;16.92600;    -1.71317;1.00000
153.55153;16.93700;    -1.71343;1.00000
153.72753;16.94800;    -1.71395;1.00000
153.90359;16.95900;    -1.71352;1.00000
154.07960;16.97000;    -1.71328;1.00000
154.25580;16.98100;    -1.71267;1.00000
154.43203;16.99200;    -1.71216;1.00000
154.60829;17.00300;    -1.71124;1.00000
154.78454;17.01400;    -1.71067;1.00000
154.96075;17.02500;    -1.70898;1.00000
155.13691;17.03600;    -1.70795;1.00000
155.31305;17.04700;    -1.70707;1.00000
155.48919;17.05800;    -1.70652;1.00000
155.66537;17.06900;    -1.70652;1.00000
155.84150;17.08000;    -1.70499;1.00000
156.01768;17.09100;    -1.70236;1.00000
156.19383;17.10200;    -1.70242;1.00000
156.36997;17.11300;    -1.70183;1.00000
156.54611;17.12400;    -1.70086;1.00000
156.72221;17.13500;    -1.70038;1.00000
156.89840;17.14600;    -1.69848;1.00000
157.07447;17.15700;    -1.69775;1.00000
157.25062;17.16800;    -1.69746;1.00000
157.42684;17.17900;    -1.69628;1.00000
157.60303;17.19000;    -1.69571;1.00000
157.77907;17.20100;    -1.69480;1.00000
157.95521;17.21200;    -1.69474;1.00000
158.13140;17.22300;    -1.69404;1.00000
158.30756;17.23400;    -1.69283;1.00000
158.48369;17.24500;    -1.69188;1.00000
158.66002;17.25600;    -1.69089;1.00000
158.83632;17.26700;    -1.68761;1.00000
159.01275;17.27800;    -1.68634;1.00000
159.18895;17.28900;    -1.68510;1.00000
159.36519;17.30000;    -1.68314;1.00000
159.54144;17.31100;    -1.68342;1.00000
159.71751;17.32200;    -1.68287;1.00000
159.89358;17.33300;    -1.68072;1.00000
160.06965;17.34400;    -1.67918;1.00000
160.24572;17.35500;    -1.67848;1.00000
160.42179;17.36600;    -1.67703;1.00000
160.59786;17.37700;    -1.67329;1.00000
160.77393;17.38800;    -1.67091;1.00000
160.95002;17.39900;    -1.66757;1.00000
161.12602;17.41000;    -1.66572;1.00000
161.30196;17.42100;    -1.66352;1.00000
161.47789;17.43200;    -1.66206;1.00000
161.65389;17.44300;    -1.66149;1.00000
161.82965;17.45400;    -1.66090;1.00000
162.00554;17.46500;    -1.66129;1.00000
162.18140;17.47600;    -1.66021;1.00000
162.35735;17.48700;    -1.65601;1.00000
162.53327;17.49800;    -1.65326;1.00000
162.70919;17.50900;    -1.65074;1.00000
162.88514;17.52000;    -1.64750;1.00000
163.06118;17.53100;    -1.64423;1.00000
163.23712;17.54200;    -1.64153;1.00000
163.41309;17.55300;    -1.63991;1.00000
163.58902;17.56400;    -1.63860;1.00000
163.76502;17.57500;    -1.63680;1.00000
163.94093;17.58600;    -1.63500;1.00000
164.11712;17.59700;    -1.63232;1.00000
164.29327;17.60800;    -1.63053;1.00000
164.46950;17.61900;    -1.62902;1.00000
164.64567;17.63000;    -1.62671;1.00000
164.82183;17.64100;    -1.62459;1.00000
164.99820;17.65200;    -1.62293;1.00000
165.17432;17.66300;    -1.61939;1.00000
165.35037;17.67400;    -1.61686;1.00000
165.52650;17.68500;    -1.61438;1.00000
165.70264;17.69600;    -1.61182;1.00000
165.87885;17.70700;    -1.60852;1.00000
166.05506;17.71800;    -1.60445;1.00000
166.23120;17.72900;    -1.60042;1.00000
166.40727;17.74000;    -1.59763;1.00000
166.58321;17.75100;    -1.59577;1.00000
166.75913;17.76200;    -1.59319;1.00000
166.93490;17.77300;    -1.59006;1.00000
167.11088;17.78400;    -1.58654;1.00000
167.28666;17.79500;    -1.58377;1.00000
167.46246;17.80600;    -1.57936;1.00000
167.63842;17.81700;    -1.57413;1.00000
167.81420;17.82800;    -1.56711;1.00000
167.98998;17.83900;    -1.56205;1.00000
168.16583;17.85000;    -1.55834;1.00000
168.34157;17.86100;    -1.55383;1.00000
168.51729;17.87200;    -1.55067;1.00000
168.69314;17.88300;    -1.54829;1.00000
168.86909;17.89400;    -1.54430;1.00000
169.04507;17.90500;    -1.54087;1.00000
169.22118;17.91600;    -1.53765;1.00000
169.39746;17.92700;    -1.53324;1.00000
169.57361;17.93800;    -1.52931;1.00000
169.74983;17.94900;    -1.52574;1.00000
169.92614;17.96000;    -1.51987;1.00000
170.10248;17.97100;    -1.51642;1.00000
170.27882;17.98200;    -1.51261;1.00000
170.45513;17.99300;    -1.50688;1.00000
170.63137;18.00400;    -1.49961;1.00000
170.80772;18.01500;    -1.49475;1.00000
170.98403;18.02600;    -1.48950;1.00000
171.16031;18.03700;    -1.48423;1.00000
171.33674;18.04800;    -1.47693;1.00000
171.51311;18.05900;    -1.46950;1.00000
171.68947;18.07000;    -1.46289;1.00000
171.86569;18.08100;    -1.45900;1.00000
172.04201;18.09200;    -1.45253;1.00000
172.21841;18.10300;    -1.44634;1.00000
172.39461;18.11400;    -1.44009;1.00000
172.57086;18.12500;    -1.43402;1.00000
172.74703;18.13600;    -1.42750;1.00000
172.92327;18.14700;    -1.42082;1.00000
173.09949;18.15800;    -1.41374;1.00000
173.27572;18.16900;    -1.40527;1.00000
173.45208;18.18000;    -1.39608;1.00000
173.62832;18.19100;    -1.38787;1.00000
173.80449;18.20200;    -1.37959;1.00000
173.98065;18.21300;    -1.37245;1.00000
174.15668;18.22400;    -1.36302;1.00000
174.33290;18.23500;    -1.35363;1.00000
174.50896;18.24600;    -1.34735;1.00000
174.68487;18.25700;    -1.33910;1.00000
174.86094;18.26800;    -1.32936;1.00000
175.03702;18.27900;    -1.32057;1.00000
175.21323;18.29000;    -1.30967;1.00000
175.38924;18.30100;    -1.30001;1.00000
175.56517;18.31200;    -1.28872;1.00000
175.74109;18.32300;    -1.27695;1.00000
175.91684;18.33400;    -1.26643;1.00000
176.09254;18.34500;    -1.25424;1.00000
176.26823;18.35600;    -1.24273;1.00000
176.44407;18.36700;    -1.23078;1.00000
176.61984;18.37800;    -1.21813;1.00000
176.79540;18.38900;    -1.20572;1.00000
176.97118;18.40000;    -1.19251;1.00000
177.14701;18.41100;    -1.17890;1.00000
177.32281;18.42200;    -1.16811;1.00000
177.49862;18.43300;    -1.15308;1.00000
177.67447;18.44400;    -1.14104;1.00000
177.85051;18.45500;    -1.12869;1.00000
178.02653;18.46600;    -1.11461;1.00000
178.20245;18.47700;    -1.10100;1.00000
178.37855;18.48800;    -1.08659;1.00000
178.55470;18.49900;    -1.07146;1.00000
178.73082;18.51000;    -1.05650;1.00000
178.90692;18.52100;    -1.04088;1.00000
179.08315;18.53200;    -1.02387;1.00000
179.25941;18.54300;    -1.00750;1.00000
179.43564;18.55400;    -0.99000;1.00000
179.61195;18.56500;    -0.97258;1.00000
179.78807;18.57600;    -0.95436;1.00000
179.96420;18.58700;    -0.93584;1.00000
180.14020;18.59800;    -0.91529;1.00000
180.31614;18.60900;    -0.89710;1.00000
180.49229;18.62000;    -0.87522;1.00000
180.66835;18.63100;    -0.85656;1.00000
180.84441;18.64200;    -0.83651;1.00000
181.02041;18.65300;    -0.81425;1.00000
181.19646;18.66400;    -0.79230;1.00000
181.37247;18.67500;    -0.76941;1.00000
181.54853;18.68600;    -0.74486;1.00000
181.72447;18.69700;    -0.72060;1.00000
181.90018;18.70800;    -0.69705;1.00000
182.07604;18.71900;    -0.67261;1.00000
182.25197;18.73000;    -0.64749;1.00000
182.42795;18.74100;    -0.61932;1.00000
182.60390;18.75200;    -0.59102;1.00000
182.77968;18.76300;    -0.56348;1.00000
182.95555;18.77400;    -0.53327;1.00000
183.13143;18.78500;    -0.50357;1.00000
183.30733;18.79600;    -0.47255;1.00000
183.48319;18.80700;    -0.44254;1.00000
183.65900;18.81800;    -0.41167;1.00000
183.83486;18.82900;    -0.37926;1.00000
184.01081;18.84000;    -0.34541;1.00000
184.18690;18.85100;    -0.31043;1.00000
184.36293;18.86200;    -0.27508;1.00000
184.53897;18.87300;    -0.23969;1.00000
184.71498;18.88400;    -0.20324;1.00000
184.89109;18.89500;    -0.16466;1.00000
185.06737;18.90600;    -0.12554;1.00000
185.24360;18.91700;-8.4977e-002;1.00000
185.41974;18.92800;-4.2695e-002;1.00000
185.59589;18.93900;-5.2130e-004;1.00000
185.77205;18.95000; 4.2915e-002;1.00000
185.94839;18.96100; 8.9145e-002;1.00000
186.12466;18.97200;     0.13607;1.00000
186.30081;18.98300;     0.18226;1.00000
186.47692;18.99400;     0.23168;1.00000
186.65309;19.00500;     0.28201;1.00000
186.82926;19.01600;     0.33244;1.00000
187.00532;19.02700;     0.38461;1.00000
187.18153;19.03800;     0.43968;1.00000
187.35761;19.04900;     0.49597;1.00000
187.53373;19.06000;     0.55303;1.00000
187.70978;19.07100;     0.61273;1.00000
187.88594;19.08200;     0.67375;1.00000
188.06208;19.09300;     0.73664;1.00000
188.23819;19.10400;     0.80199;1.00000
188.41418;19.11500;     0.86691;1.00000
188.59036;19.12600;     0.93449;1.00000
188.76652;19.13700;     1.00445;1.00000
188.94262;19.14800;     1.07602;1.00000
189.11877;19.15900;     1.14975;1.00000
189.29497;19.17000;     1.22455;1.00000
189.47102;19.18100;     1.30084;1.00000
189.64710;19.19200;     1.38045;1.00000
189.82315;19.20300;     1.46290;1.00000
189.99932;19.21400;     1.54659;1.00000
190.17544;19.22500;     1.63083;1.00000
190.35153;19.23600;     1.71959;1.00000
190.52761;19.24700;     1.80832;1.00000
190.70361;19.25800;     1.90077;1.00000
190.87975;19.26900;     1.99619;1.00000
191.05581;19.28000;     2.09353;1.00000
191.23189;19.29100;     2.19231;1.00000
191.40809;19.30200;     2.29427;1.00000
191.58419;19.31300;     2.39949;1.00000
191.76037;19.32400;     2.50558;1.00000
191.93663;19.33500;     2.61401;1.00000
192.11279;19.34600;     2.72652;1.00000
192.28886;19.35700;     2.84055;1.00000
192.46494;19.36800;     2.95758;1.00000
192.64123;19.37900;     3.07932;1.00000
192.81742;19.39000;     3.19981;1.00000
192.99364;19.40100;     3.32613;1.00000
193.16989;19.41200;     3.45372;1.00000
193.34600;19.42300;     3.58490;1.00000
193.52224;19.43400;     3.71804;1.00000
193.69849;19.44500;     3.85225;1.00000
193.87463;19.45600;     3.99004;1.00000
194.05091;19.46700;     4.13153;1.00000
194.22706;19.47800;     4.27680;1.00000
194.40324;19.48900;     4.42562;1.00000
194.57947;19.50000;     4.57830;1.00000
194.75577;19.51100;     4.73575;1.00000
194.93200;19.52200;     4.89703;1.00000
195.10816;19.53300;     5.06594;1.00000
195.28439;19.54400;     5.23768;1.00000
195.46060;19.55500;     5.41593;1.00000
195.63684;19.56600;     5.60054;1.00000
195.81307;19.57700;     5.79105;1.00000
195.98921;19.58800;     5.98662;1.00000
196.16543;19.59900;     6.18700;1.00000
196.34163;19.61000;     6.39367;1.00000
196.51781;19.62100;     6.60497;1.00000
196.69408;19.63200;     6.82191;1.00000
196.87036;19.64300;     7.03971;1.00000
197.04652;19.65400;     7.26194;1.00000
197.22269;19.66500;     7.48560;1.00000
197.39885;19.67600;     7.71027;1.00000
197.57512;19.68700;     7.93173;1.00000
197.75141;19.69800;     8.15244;1.00000
197.92778;19.70900;     8.36919;1.00000
198.10414;19.72000;     8.57779;1.00000
198.28047;19.73100;     8.78086;1.00000
198.45671;19.74200;     8.97689;1.00000
198.63288;19.75300;     9.16185;1.00000
198.80907;19.76400;     9.33555;1.00000
198.98523;19.77500;     9.49596;1.00000
199.16138;19.78600;     9.64150;1.00000
199.33751;19.79700;     9.77339;1.00000
199.51379;19.80800;     9.89174;1.00000
199.68982;19.81900;     9.98970;1.00000
199.86597;19.83000;    10.07395;1.00000
200.04213;19.84100;    10.14165;1.00000
200.21818;19.85200;    10.19097;1.00000
200.39413;19.86300;    10.22208;1.00000
200.57004;19.87400;    10.23892;1.00000
200.74598;19.88500;    10.23992;1.00000
200.92201;19.89600;    10.22418;1.00000
201.09801;19.90700;    10.19619;1.00000
201.27401;19.91800;    10.15364;1.00000
201.45000;19.92900;    10.09828;1.00000
201.62600;19.94000;    10.03288;1.00000
201.80199;19.95100;     9.95713;1.00000
201.97801;19.96200;     9.87250;1.00000
202.15410;19.97300;     9.77949;1.00000
202.33011;19.98400;     9.67854;1.00000
202.50597;19.99500;     9.57006;1.00000
202.68188;20.00600;     9.45725;1.00000
202.85780;20.01700;     9.33998;1.00000
203.03394;20.02800;     9.21984;1.00000
203.21000;20.03900;     9.09501;1.00000
203.38607;20.05000;     8.96794;1.00000
203.56217;20.06100;     8.84072;1.00000
203.73832;20.07200;     8.71061;1.00000
203.91438;20.08300;     8.57814;1.00000
204.09041;20.09400;     8.44522;1.00000
204.26639;20.10500;     8.31360;1.00000
204.44246;20.11600;     8.18285;1.00000
204.61839;20.12700;     8.05102;1.00000
204.79439;20.13800;     7.91925;1.00000
204.97043;20.14900;     7.78991;1.00000
205.14659;20.16000;     7.66165;1.00000
205.32267;20.17100;     7.53295;1.00000
205.49872;20.18200;     7.40578;1.00000
205.67484;20.19300;     7.28139;1.00000
205.85095;20.20400;     7.15854;1.00000
206.02705;20.21500;     7.03564;1.00000
206.20310;20.22600;     6.91481;1.00000
206.37927;20.23700;     6.79386;1.00000
206.55535;20.24800;     6.67610;1.00000
206.73149;20.25900;     6.55738;1.00000
206.90762;20.27000;     6.44158;1.00000
207.08367;20.28100;     6.32726;1.00000
207.25982;20.29200;     6.21528;1.00000
207.43594;20.30300;     6.10467;1.00000
207.61189;20.31400;     5.99389;1.00000
207.78783;20.32500;     5.88447;1.00000
207.96369;20.33600;     5.77643;1.00000
208.13954;20.34700;     5.66729;1.00000
208.31532;20.35800;     5.55860;1.00000
208.49109;20.36900;     5.44999;1.00000
208.66680;20.38000;     5.34237;1.00000
208.84262;20.39100;     5.23473;1.00000
209.01845;20.40200;     5.12585;1.00000
209.19408;20.41300;     5.01639;1.00000
209.36980;20.42400;     4.91097;1.00000
209.54560;20.43500;     4.80889;1.00000
209.72124;20.44600;     4.71302;1.00000
209.89700;20.45700;     4.62280;1.00000
210.07285;20.46800;     4.53945;1.00000
210.24876;20.47900;     4.46761;1.00000
210.42458;20.49000;     4.40869;1.00000
210.60052;20.50100;     4.35438;1.00000
210.77643;20.51200;     4.30061;1.00000
210.95243;20.52300;     4.24653;1.00000
211.12851;20.53400;     4.18860;1.00000
211.30457;20.54500;     4.12815;1.00000
211.48070;20.55600;     4.06692;1.00000
211.65688;20.56700;     4.00274;1.00000
211.83295;20.57800;     3.93905;1.00000
212.00910;20.58900;     3.87518;1.00000
212.18531;20.60000;     3.81255;1.00000
212.36143;20.61100;     3.74983;1.00000
212.53749;20.62200;     3.68694;1.00000
212.71359;20.63300;     3.62528;1.00000
212.88977;20.64400;     3.56402;1.00000
213.06587;20.65500;     3.50202;1.00000
213.24193;20.66600;     3.44255;1.00000
213.41794;20.67700;     3.38354;1.00000
213.59379;20.68800;     3.32305;1.00000
213.76963;20.69900;     3.26356;1.00000
213.94543;20.71000;     3.20482;1.00000
214.12137;20.72100;     3.14727;1.00000
214.29725;20.73200;     3.09047;1.00000
214.47304;20.74300;     3.03607;1.00000
214.64880;20.75400;     2.98259;1.00000
214.82463;20.76500;     2.92693;1.00000
215.00048;20.77600;     2.87365;1.00000
215.17634;20.78700;     2.81998;1.00000
215.35211;20.79800;     2.76864;1.00000
215.52806;20.80900;     2.71669;1.00000
215.70407;20.82000;     2.66453;1.00000
215.88000;20.83100;     2.61345;1.00000
216.05598;20.84200;     2.56337;1.00000
216.23212;20.85300;     2.51335;1.00000
216.40818;20.86400;     2.46379;1.00000
216.58439;20.87500;     2.41690;1.00000
216.76052;20.88600;     2.36998;1.00000
216.93661;20.89700;     2.32272;1.00000
217.11282;20.90800;     2.27699;1.00000
217.28902;20.91900;     2.23077;1.00000
217.46510;20.93000;     2.18478;1.00000
217.64123;20.94100;     2.14052;1.00000
217.81730;20.95200;     2.09637;1.00000
217.99328;20.96300;     2.05330;1.00000
218.16930;20.97400;     2.01098;1.00000
218.34529;20.98500;     1.96985;1.00000
218.52129;20.99600;     1.93087;1.00000
218.69708;21.00700;     1.89159;1.00000
218.87313;21.01800;     1.84847;1.00000
219.04892;21.02900;     1.80953;1.00000
219.22504;21.04000;     1.77052;1.00000
219.40111;21.05100;     1.73051;1.00000
219.57703;21.06200;     1.69155;1.00000
219.75298;21.07300;     1.65399;1.00000
219.92889;21.08400;     1.61619;1.00000
220.10482;21.09500;     1.57854;1.00000
220.28073;21.10600;     1.54148;1.00000
220.45673;21.11700;     1.50596;1.00000
220.63259;21.12800;     1.47126;1.00000
220.80865;21.13900;     1.43634;1.00000
220.98463;21.15000;     1.40129;1.00000
221.16066;21.16100;     1.36677;1.00000
221.33660;21.17200;     1.33432;1.00000
221.51258;21.18300;     1.30005;1.00000
221.68844;21.19400;     1.26669;1.00000
221.86434;21.20500;     1.23419;1.00000
222.04026;21.21600;     1.20317;1.00000
222.21631;21.22700;     1.16902;1.00000
222.39242;21.23800;     1.13934;1.00000
222.56848;21.24900;     1.10730;1.00000
222.74447;21.26000;     1.07541;1.00000
222.92049;21.27100;     1.04346;1.00000
223.09651;21.28200;     1.01497;1.00000
223.27244;21.29300;     0.98505;1.00000
223.44854;21.30400;     0.95364;1.00000
223.62462;21.31500;     0.92534;1.00000
223.80055;21.32600;     0.89615;1.00000
223.97654;21.33700;     0.86653;1.00000
224.15261;21.34800;     0.83781;1.00000
224.32874;21.35900;     0.80871;1.00000
224.50473;21.37000;     0.78042;1.00000
224.68084;21.38100;     0.75312;1.00000
224.85697;21.39200;     0.72611;1.00000
225.03308;21.40300;     0.70033;1.00000
225.20924;21.41400;     0.67344;1.00000
225.38531;21.42500;     0.64620;1.00000
225.56155;21.43600;     0.61896;1.00000
225.73786;21.44700;     0.59321;1.00000
225.91379;21.45800;     0.56817;1.00000
226.08994;21.46900;     0.54359;1.00000
226.26608;21.48000;     0.52019;1.00000
226.44213;21.49100;     0.49509;1.00000
226.61803;21.50200;     0.47069;1.00000
226.79399;21.51300;     0.44714;1.00000
226.97001;21.52400;     0.42347;1.00000
227.14589;21.53500;     0.40047;1.00000
227.32185;21.54600;     0.37717;1.00000
227.49785;21.55700;     0.35515;1.00000
227.67381;21.56800;     0.33300;1.00000
227.84979;21.57900;     0.31055;1.00000
228.02555;21.59000;     0.28765;1.00000
228.20148;21.60100;     0.26623;1.00000
228.37752;21.61200;     0.24292;1.00000
228.55342;21.62300;     0.21974;1.00000
228.72937;21.63400;     0.19799;1.00000
228.90551;21.64500;     0.17768;1.00000
229.08160;21.65600;     0.15730;1.00000
229.25773;21.66700;     0.13470;1.00000
229.43381;21.67800;     0.11358;1.00000
229.60995;21.68900; 9.2586e-002;1.00000
229.78600;21.70000; 7.2117e-002;1.00000
229.96211;21.71100; 5.2597e-002;1.00000
230.13818;21.72200; 3.2584e-002;1.00000
230.31431;21.73300; 1.2838e-002;1.00000
230.49044;21.74400;-7.4728e-003;1.00000
230.66631;21.75500;-2.6506e-002;1.00000
230.84215;21.76600;-4.4696e-002;1.00000
231.01807;21.77700;-6.3235e-002;1.00000
231.19399;21.78800;-8.0015e-002;1.00000
231.36983;21.79900;-9.7808e-002;1.00000
231.54562;21.81000;    -0.11500;1.00000
231.72151;21.82100;    -0.13140;1.00000
231.89729;21.83200;    -0.15074;1.00000
232.07302;21.84300;    -0.16765;1.00000
232.24881;21.85400;    -0.18448;1.00000
232.42457;21.86500;    -0.20236;1.00000
232.60047;21.87600;    -0.22029;1.00000
232.77639;21.88700;    -0.23858;1.00000
232.95235;21.89800;    -0.25522;1.00000
233.12843;21.90900;    -0.27203;1.00000
233.30455;21.92000;    -0.28783;1.00000
233.48054;21.93100;    -0.30423;1.00000
233.65653;21.94200;    -0.32034;1.00000
233.83257;21.95300;    -0.33646;1.00000
234.00856;21.96400;    -0.35299;1.00000
234.18451;21.97500;    -0.36742;1.00000
234.36065;21.98600;    -0.38418;1.00000
234.53681;21.99700;    -0.39851;1.00000
234.71281;22.00800;    -0.41261;1.00000
234.88882;22.01900;    -0.42555;1.00000
235.06494;22.03000;    -0.43987;1.00000
235.24094;22.04100;    -0.45437;1.00000
235.41704;22.05200;    -0.46874;1.00000
235.59323;22.06300;    -0.48406;1.00000
235.76953;22.07400;    -0.49793;1.00000
235.94571;22.08500;    -0.51185;1.00000
236.12191;22.09600;    -0.52551;1.00000
236.29812;22.10700;    -0.54079;1.00000
236.47440;22.11800;    -0.55404;1.00000
236.65047;22.12900;    -0.56730;1.00000
236.82654;22.14000;    -0.58108;1.00000
237.00266;22.15100;    -0.59170;1.00000
237.17878;22.16200;    -0.59960;1.00000
237.35482;22.17300;    -0.61258;1.00000
237.53076;22.18400;    -0.62622;1.00000
237.70673;22.19500;    -0.63863;1.00000
237.88274;22.20600;    -0.65045;1.00000
238.05860;22.21700;    -0.66142;1.00000
238.23452;22.22800;    -0.67204;1.00000
238.41053;22.23900;    -0.68332;1.00000
238.58640;22.25000;    -0.69488;1.00000
238.76236;22.26100;    -0.70707;1.00000
238.93826;22.27200;    -0.71770;1.00000
239.11423;22.28300;    -0.72845;1.00000
239.29019;22.29400;    -0.73823;1.00000
239.46618;22.30500;    -0.74835;1.00000
239.64226;22.31600;    -0.75904;1.00000
239.81834;22.32700;    -0.76870;1.00000
239.99441;22.33800;    -0.77744;1.00000
240.17048;22.34900;    -0.78706;1.00000
240.34655;22.36000;    -0.79650;1.00000
240.52259;22.37100;    -0.80696;1.00000
240.69863;22.38200;    -0.81604;1.00000
240.87482;22.39300;    -0.82567;1.00000
241.05093;22.40400;    -0.83611;1.00000
241.22698;22.41500;    -0.84485;1.00000
241.40317;22.42600;    -0.85359;1.00000
241.57939;22.43700;    -0.86198;1.00000
241.75553;22.44800;    -0.86945;1.00000
241.93168;22.45900;    -0.87666;1.00000
242.10780;22.47000;    -0.88508;1.00000
242.28392;22.48100;    -0.89293;1.00000
242.46016;22.49200;    -0.89947;1.00000
242.63621;22.50300;    -0.90560;1.00000
242.81223;22.51400;    -0.91367;1.00000
242.98837;22.52500;    -0.92158;1.00000
243.16445;22.53600;    -0.92840;1.00000
243.34058;22.54700;    -0.93223;1.00000
243.51673;22.55800;    -0.94327;1.00000
243.69295;22.56900;    -0.94939;1.00000
243.86886;22.58000;    -0.95641;1.00000
244.04488;22.59100;    -0.96343;1.00000
244.22084;22.60200;    -0.96876;1.00000
244.39682;22.61300;    -0.97519;1.00000
244.57296;22.62400;    -0.98249;1.00000
244.74900;22.63500;    -0.98924;1.00000
244.92500;22.64600;    -0.99492;1.00000
245.10114;22.65700;    -1.00008;1.00000
245.27714;22.66800;    -1.00547;1.00000
245.45321;22.67900;    -1.00883;1.00000
245.62922;22.69000;    -1.01462;1.00000
245.80523;22.70100;    -1.02077;1.00000
245.98109;22.71200;    -1.02454;1.00000
246.15722;22.72300;    -1.03268;1.00000
246.33340;22.73400;    -1.01749;1.00000
246.50940;22.74500;    -1.03410;1.00000
246.68553;22.75600;    -1.04769;1.00000
246.86147;22.76700;    -1.04876;1.00000
247.03732;22.77800;    -1.05293;1.00000
247.21319;22.78900;    -1.05632;1.00000
247.38916;22.80000;    -1.06092;1.00000
247.56508;22.81100;    -1.06416;1.00000
247.74109;22.82200;    -1.06768;1.00000
247.91704;22.83300;    -1.07092;1.00000
248.09302;22.84400;    -1.07453;1.00000
248.26908;22.85500;    -1.07737;1.00000
248.44522;22.86600;    -1.08131;1.00000
248.62110;22.87700;    -1.08428;1.00000
248.79798;22.88800;    -1.08794;1.00000
248.97310;22.89900;    -1.09225;1.00000
249.14938;22.91000;    -1.09722;1.00000
249.32561;22.92100;    -1.10057;1.00000
249.50183;22.93200;    -1.10253;1.00000

