#EXPORTTYPE:DATA SINGLE
#FORMAT:NETZSCH5
#FTYPE:ANSI
#IDENTITY:001931
#DECIMAL:POINT
#SEPARATOR:SEMICOLON
#DATE/TIME:16.12.2016 11:34
#CORR. FILE:001930_bline_Al_250_2_N2_70.ngb-bd3
#TEMPCAL:TCALZERO.TMX
#SENSITIVITY:SENSZERO.EXX
#SAMPLE MASS /mg:8.25
#MATERIAL:ïðåïðåã
#REFERENCE:
#REFERENCE MASS /mg:0
#TYPE OF CRUCIBLE:Pan Al, closed
#SAMPLE CRUCIBLE MASS /mg:0
#REFERENCE CRUCIBLE MASS /mg:0
#M.RANGE /µV:5000
#TAU-R:---
#CORR. CODE:020
#EXO:+1
#RANGE:24°C/2,0(K/min)/270°C
#SEGMENT:S1/2
#SEG. 1:24°C/2,0(K/min)/270°C

##Temp./°C;Time/min;DSC/(uV/mg);Sensit./(uV/mW)
 48.47032; 12.50000;    -0.19300;1.00000
 48.65077; 12.59000;    -0.19346;1.00000
 48.83116; 12.68000;    -0.19429;1.00000
 49.01148; 12.77000;    -0.19328;1.00000
 49.19182; 12.86000;    -0.19319;1.00000
 49.37217; 12.95000;    -0.19374;1.00000
 49.55263; 13.04000;    -0.19374;1.00000
 49.73304; 13.13000;    -0.19300;1.00000
 49.91339; 13.22000;    -0.19300;1.00000
 50.09371; 13.31000;    -0.19300;1.00000
 50.27408; 13.40000;    -0.19374;1.00000
 50.45446; 13.49000;    -0.19383;1.00000
 50.63471; 13.58000;    -0.19291;1.00000
 50.81511; 13.67000;    -0.19392;1.00000
 50.99547; 13.76000;    -0.19281;1.00000
 51.17587; 13.85000;    -0.19337;1.00000
 51.35623; 13.94000;    -0.19235;1.00000
 51.53665; 14.03000;    -0.19328;1.00000
 51.71702; 14.12000;    -0.19355;1.00000
 51.89734; 14.21000;    -0.19291;1.00000
 52.07761; 14.30000;    -0.19309;1.00000
 52.25793; 14.39000;    -0.19198;1.00000
 52.43820; 14.48000;    -0.19374;1.00000
 52.61851; 14.57000;    -0.19198;1.00000
 52.79885; 14.66000;    -0.19263;1.00000
 52.97911; 14.75000;    -0.19346;1.00000
 53.15942; 14.84000;    -0.19281;1.00000
 53.33969; 14.93000;    -0.19226;1.00000
 53.51987; 15.02000;    -0.19318;1.00000
 53.70009; 15.11000;    -0.19374;1.00000
 53.88029; 15.20000;    -0.19152;1.00000
 54.06054; 15.29000;    -0.19365;1.00000
 54.24073; 15.38000;    -0.19207;1.00000
 54.42088; 15.47000;    -0.19309;1.00000
 54.60096; 15.56000;    -0.19281;1.00000
 54.78102; 15.65000;    -0.19244;1.00000
 54.96117; 15.74000;    -0.19263;1.00000
 55.14135; 15.83000;    -0.19291;1.00000
 55.32145; 15.92000;    -0.19216;1.00000
 55.50163; 16.01000;    -0.19226;1.00000
 55.68177; 16.10000;    -0.19309;1.00000
 55.86197; 16.19000;    -0.19309;1.00000
 56.04208; 16.28000;    -0.19272;1.00000
 56.22222; 16.37000;    -0.19198;1.00000
 56.40249; 16.46000;    -0.19235;1.00000
 56.58271; 16.55000;    -0.19216;1.00000
 56.76291; 16.64000;    -0.19300;1.00000
 56.94304; 16.73000;    -0.19318;1.00000
 57.12311; 16.82000;    -0.19327;1.00000
 57.30334; 16.91000;    -0.19300;1.00000
 57.48344; 17.00000;    -0.19226;1.00000
 57.66350; 17.09000;    -0.19309;1.00000
 57.84366; 17.18000;    -0.19327;1.00000
 58.02377; 17.27000;    -0.19235;1.00000
 58.20392; 17.36000;    -0.19365;1.00000
 58.38396; 17.45000;    -0.19198;1.00000
 58.56402; 17.54000;    -0.19170;1.00000
 58.74410; 17.63000;    -0.19143;1.00000
 58.92421; 17.72000;    -0.19189;1.00000
 59.10432; 17.81000;    -0.19281;1.00000
 59.28442; 17.90000;    -0.19300;1.00000
 59.46449; 17.99000;    -0.19235;1.00000
 59.64468; 18.08000;    -0.19318;1.00000
 59.82480; 18.17000;    -0.19272;1.00000
 60.00495; 18.26000;    -0.19198;1.00000
 60.18505; 18.35000;    -0.19300;1.00000
 60.36516; 18.44000;    -0.19198;1.00000
 60.54526; 18.53000;    -0.19254;1.00000
 60.72533; 18.62000;    -0.19198;1.00000
 60.90544; 18.71000;    -0.19263;1.00000
 61.08551; 18.80000;    -0.19170;1.00000
 61.26552; 18.89000;    -0.19189;1.00000
 61.44554; 18.98000;    -0.19216;1.00000
 61.62549; 19.07000;    -0.19272;1.00000
 61.80544; 19.16000;    -0.19207;1.00000
 61.98539; 19.25000;    -0.19263;1.00000
 62.16542; 19.34000;    -0.19189;1.00000
 62.34548; 19.43000;    -0.19161;1.00000
 62.52546; 19.52000;    -0.19272;1.00000
 62.70553; 19.61000;    -0.19290;1.00000
 62.88566; 19.70000;    -0.19198;1.00000
 63.06576; 19.79000;    -0.19226;1.00000
 63.24590; 19.88000;    -0.19263;1.00000
 63.42600; 19.97000;    -0.19244;1.00000
 63.60614; 20.06000;    -0.19235;1.00000
 63.78622; 20.15000;    -0.19318;1.00000
 63.96632; 20.24000;    -0.19383;1.00000
 64.14631; 20.33000;    -0.19355;1.00000
 64.32637; 20.42000;    -0.19179;1.00000
 64.50640; 20.51000;    -0.19328;1.00000
 64.68638; 20.60000;    -0.19355;1.00000
 64.86636; 20.69000;    -0.19272;1.00000
 65.04634; 20.78000;    -0.19383;1.00000
 65.22637; 20.87000;    -0.19374;1.00000
 65.40640; 20.96000;    -0.19328;1.00000
 65.58638; 21.05000;    -0.19309;1.00000
 65.76642; 21.14000;    -0.19438;1.00000
 65.94644; 21.23000;    -0.19291;1.00000
 66.12659; 21.32000;    -0.19383;1.00000
 66.30654; 21.41000;    -0.19411;1.00000
 66.48655; 21.50000;    -0.19337;1.00000
 66.66659; 21.59000;    -0.19420;1.00000
 66.84656; 21.68000;    -0.19392;1.00000
 67.02658; 21.77000;    -0.19365;1.00000
 67.20655; 21.86000;    -0.19401;1.00000
 67.38653; 21.95000;    -0.19337;1.00000
 67.56660; 22.04000;    -0.19392;1.00000
 67.74665; 22.13000;    -0.19300;1.00000
 67.92666; 22.22000;    -0.19327;1.00000
 68.10666; 22.31000;    -0.19290;1.00000
 68.28673; 22.40000;    -0.19309;1.00000
 68.46668; 22.49000;    -0.19263;1.00000
 68.64677; 22.58000;    -0.19364;1.00000
 68.82683; 22.67000;    -0.19364;1.00000
 69.00692; 22.76000;    -0.19337;1.00000
 69.18703; 22.85000;    -0.19290;1.00000
 69.36706; 22.94000;    -0.19309;1.00000
 69.54710; 23.03000;    -0.19439;1.00000
 69.72713; 23.12000;    -0.19318;1.00000
 69.90723; 23.21000;    -0.19383;1.00000
 70.08723; 23.30000;    -0.19439;1.00000
 70.26725; 23.39000;    -0.19309;1.00000
 70.44736; 23.48000;    -0.19475;1.00000
 70.62737; 23.57000;    -0.19420;1.00000
 70.80739; 23.66000;    -0.19420;1.00000
 70.98737; 23.75000;    -0.19374;1.00000
 71.16732; 23.84000;    -0.19503;1.00000
 71.34733; 23.93000;    -0.19420;1.00000
 71.52737; 24.02000;    -0.19318;1.00000
 71.70741; 24.11000;    -0.19420;1.00000
 71.88737; 24.20000;    -0.19466;1.00000
 72.06740; 24.29000;    -0.19457;1.00000
 72.24748; 24.38000;    -0.19429;1.00000
 72.42740; 24.47000;    -0.19401;1.00000
 72.60748; 24.56000;    -0.19531;1.00000
 72.78748; 24.65000;    -0.19383;1.00000
 72.96755; 24.74000;    -0.19466;1.00000
 73.14758; 24.83000;    -0.19438;1.00000
 73.32764; 24.92000;    -0.19512;1.00000
 73.50767; 25.01000;    -0.19494;1.00000
 73.68762; 25.10000;    -0.19438;1.00000
 73.86770; 25.19000;    -0.19512;1.00000
 74.04772; 25.28000;    -0.19522;1.00000
 74.22773; 25.37000;    -0.19522;1.00000
 74.40781; 25.46000;    -0.19540;1.00000
 74.58779; 25.55000;    -0.19522;1.00000
 74.76782; 25.64000;    -0.19503;1.00000
 74.94790; 25.73000;    -0.19494;1.00000
 75.12792; 25.82000;    -0.19485;1.00000
 75.30790; 25.91000;    -0.19439;1.00000
 75.48792; 26.00000;    -0.19531;1.00000
 75.66794; 26.09000;    -0.19522;1.00000
 75.84793; 26.18000;    -0.19494;1.00000
 76.02794; 26.27000;    -0.19522;1.00000
 76.20801; 26.36000;    -0.19494;1.00000
 76.38803; 26.45000;    -0.19457;1.00000
 76.56804; 26.54000;    -0.19512;1.00000
 76.74809; 26.63000;    -0.19596;1.00000
 76.92805; 26.72000;    -0.19605;1.00000
 77.10801; 26.81000;    -0.19466;1.00000
 77.28794; 26.90000;    -0.19484;1.00000
 77.46800; 26.99000;    -0.19559;1.00000
 77.64796; 27.08000;    -0.19540;1.00000
 77.82797; 27.17000;    -0.19586;1.00000
 78.00795; 27.26000;    -0.19577;1.00000
 78.18787; 27.35000;    -0.19568;1.00000
 78.36778; 27.44000;    -0.19577;1.00000
 78.54769; 27.53000;    -0.19439;1.00000
 78.72758; 27.62000;    -0.19549;1.00000
 78.90759; 27.71000;    -0.19559;1.00000
 79.08755; 27.80000;    -0.19521;1.00000
 79.26755; 27.89000;    -0.19531;1.00000
 79.44752; 27.98000;    -0.19494;1.00000
 79.62748; 28.07000;    -0.19531;1.00000
 79.80748; 28.16000;    -0.19577;1.00000
 79.98749; 28.25000;    -0.19549;1.00000
 80.16760; 28.34000;    -0.19586;1.00000
 80.34766; 28.43000;    -0.19559;1.00000
 80.52770; 28.52000;    -0.19558;1.00000
 80.70780; 28.61000;    -0.19559;1.00000
 80.88784; 28.70000;    -0.19614;1.00000
 81.06790; 28.79000;    -0.19642;1.00000
 81.24800; 28.88000;    -0.19596;1.00000
 81.42811; 28.97000;    -0.19494;1.00000
 81.60816; 29.06000;    -0.19586;1.00000
 81.78815; 29.15000;    -0.19623;1.00000
 81.96823; 29.24000;    -0.19596;1.00000
 82.14827; 29.33000;    -0.19660;1.00000
 82.32838; 29.42000;    -0.19605;1.00000
 82.50844; 29.51000;    -0.19475;1.00000
 82.68846; 29.60000;    -0.19484;1.00000
 82.86855; 29.69000;    -0.19614;1.00000
 83.04862; 29.78000;    -0.19577;1.00000
 83.22866; 29.87000;    -0.19614;1.00000
 83.40867; 29.96000;    -0.19623;1.00000
 83.58872; 30.05000;    -0.19614;1.00000
 83.76885; 30.14000;    -0.19586;1.00000
 83.94887; 30.23000;    -0.19614;1.00000
 84.12891; 30.32000;    -0.19614;1.00000
 84.30885; 30.41000;    -0.19568;1.00000
 84.48892; 30.50000;    -0.19697;1.00000
 84.66896; 30.59000;    -0.19475;1.00000
 84.84893; 30.68000;    -0.19559;1.00000
 85.02898; 30.77000;    -0.19633;1.00000
 85.20905; 30.86000;    -0.19586;1.00000
 85.38909; 30.95000;    -0.19586;1.00000
 85.56908; 31.04000;    -0.19679;1.00000
 85.74902; 31.13000;    -0.19642;1.00000
 85.92903; 31.22000;    -0.19660;1.00000
 86.10896; 31.31000;    -0.19624;1.00000
 86.28899; 31.40000;    -0.19670;1.00000
 86.46896; 31.49000;    -0.19725;1.00000
 86.64898; 31.58000;    -0.19744;1.00000
 86.82903; 31.67000;    -0.19716;1.00000
 87.00902; 31.76000;    -0.19586;1.00000
 87.18901; 31.85000;    -0.19827;1.00000
 87.36899; 31.94000;    -0.19679;1.00000
 87.54902; 32.03000;    -0.19707;1.00000
 87.72905; 32.12000;    -0.19688;1.00000
 87.90912; 32.21000;    -0.19716;1.00000
 88.08917; 32.30000;    -0.19743;1.00000
 88.26919; 32.39000;    -0.19697;1.00000
 88.44925; 32.48000;    -0.19753;1.00000
 88.62928; 32.57000;    -0.19744;1.00000
 88.80924; 32.66000;    -0.19661;1.00000
 88.98927; 32.75000;    -0.19707;1.00000
 89.16928; 32.84000;    -0.19660;1.00000
 89.34932; 32.93000;    -0.19688;1.00000
 89.52933; 33.02000;    -0.19642;1.00000
 89.70938; 33.11000;    -0.19744;1.00000
 89.88938; 33.20000;    -0.19808;1.00000
 90.06946; 33.29000;    -0.19661;1.00000
 90.24946; 33.38000;    -0.19688;1.00000
 90.42944; 33.47000;    -0.19679;1.00000
 90.60950; 33.56000;    -0.19818;1.00000
 90.78951; 33.65000;    -0.19725;1.00000
 90.96957; 33.74000;    -0.19670;1.00000
 91.14969; 33.83000;    -0.19697;1.00000
 91.32974; 33.92000;    -0.19660;1.00000
 91.50976; 34.01000;    -0.19781;1.00000
 91.68982; 34.10000;    -0.19743;1.00000
 91.86983; 34.19000;    -0.19707;1.00000
 92.04984; 34.28000;    -0.19753;1.00000
 92.22980; 34.37000;    -0.19734;1.00000
 92.40983; 34.46000;    -0.19799;1.00000
 92.58983; 34.55000;    -0.19799;1.00000
 92.76988; 34.64000;    -0.19790;1.00000
 92.94987; 34.73000;    -0.19762;1.00000
 93.12984; 34.82000;    -0.19734;1.00000
 93.30982; 34.91000;    -0.19799;1.00000
 93.48976; 35.00000;    -0.19808;1.00000
 93.66980; 35.09000;    -0.19707;1.00000
 93.84979; 35.18000;    -0.19651;1.00000
 94.02973; 35.27000;    -0.19891;1.00000
 94.20985; 35.36000;    -0.19697;1.00000
 94.38984; 35.45000;    -0.19799;1.00000
 94.56989; 35.54000;    -0.19762;1.00000
 94.74985; 35.63000;    -0.19753;1.00000
 94.92987; 35.72000;    -0.19697;1.00000
 95.10989; 35.81000;    -0.19790;1.00000
 95.28990; 35.90000;    -0.19790;1.00000
 95.46989; 35.99000;    -0.19790;1.00000
 95.64979; 36.08000;    -0.19808;1.00000
 95.82983; 36.17000;    -0.19697;1.00000
 96.00984; 36.26000;    -0.19697;1.00000
 96.18980; 36.35000;    -0.19790;1.00000
 96.36987; 36.44000;    -0.19781;1.00000
 96.54989; 36.53000;    -0.19771;1.00000
 96.72988; 36.62000;    -0.19901;1.00000
 96.90996; 36.71000;    -0.19882;1.00000
 97.08996; 36.80000;    -0.19762;1.00000
 97.26998; 36.89000;    -0.19882;1.00000
 97.45003; 36.98000;    -0.19882;1.00000
 97.63008; 37.07000;    -0.19827;1.00000
 97.81014; 37.16000;    -0.19882;1.00000
 97.99009; 37.25000;    -0.19854;1.00000
 98.17017; 37.34000;    -0.19827;1.00000
 98.35016; 37.43000;    -0.19725;1.00000
 98.53022; 37.52000;    -0.19771;1.00000
 98.71026; 37.61000;    -0.19855;1.00000
 98.89028; 37.70000;    -0.19854;1.00000
 99.07037; 37.79000;    -0.19873;1.00000
 99.25042; 37.88000;    -0.19947;1.00000
 99.43055; 37.97000;    -0.19892;1.00000
 99.61063; 38.06000;    -0.19910;1.00000
 99.79066; 38.15000;    -0.19901;1.00000
 99.97079; 38.24000;    -0.19873;1.00000
100.15085; 38.33000;    -0.19873;1.00000
100.33087; 38.42000;    -0.19984;1.00000
100.51086; 38.51000;    -0.19827;1.00000
100.69091; 38.60000;    -0.19845;1.00000
100.87090; 38.69000;    -0.19966;1.00000
101.05085; 38.78000;    -0.20058;1.00000
101.23086; 38.87000;    -0.19984;1.00000
101.41079; 38.96000;    -0.19929;1.00000
101.59081; 39.05000;    -0.19993;1.00000
101.77076; 39.14000;    -0.19827;1.00000
101.95071; 39.23000;    -0.19901;1.00000
102.13060; 39.32000;    -0.19882;1.00000
102.31057; 39.41000;    -0.19919;1.00000
102.49053; 39.50000;    -0.19928;1.00000
102.67049; 39.59000;    -0.19947;1.00000
102.85045; 39.68000;    -0.19827;1.00000
103.03042; 39.77000;    -0.19928;1.00000
103.21040; 39.86000;    -0.20003;1.00000
103.39038; 39.95000;    -0.19993;1.00000
103.57026; 40.04000;    -0.20040;1.00000
103.75025; 40.13000;    -0.19984;1.00000
103.93018; 40.22000;    -0.19956;1.00000
104.11022; 40.31000;    -0.19956;1.00000
104.29018; 40.40000;    -0.19956;1.00000
104.47022; 40.49000;    -0.19928;1.00000
104.65023; 40.58000;    -0.19882;1.00000
104.83026; 40.67000;    -0.19928;1.00000
105.01026; 40.76000;    -0.19919;1.00000
105.19031; 40.85000;    -0.19808;1.00000
105.37034; 40.94000;    -0.19929;1.00000
105.55038; 41.03000;    -0.19929;1.00000
105.73042; 41.12000;    -0.19975;1.00000
105.91054; 41.21000;    -0.19873;1.00000
106.09053; 41.30000;    -0.19892;1.00000
106.27056; 41.39000;    -0.19808;1.00000
106.45064; 41.48000;    -0.19966;1.00000
106.63064; 41.57000;    -0.19984;1.00000
106.81066; 41.66000;    -0.19966;1.00000
106.99060; 41.75000;    -0.19993;1.00000
107.17055; 41.84000;    -0.19938;1.00000
107.35052; 41.93000;    -0.20021;1.00000
107.53061; 42.02000;    -0.19845;1.00000
107.71065; 42.11000;    -0.19956;1.00000
107.89063; 42.20000;    -0.19827;1.00000
108.07066; 42.29000;    -0.19929;1.00000
108.25073; 42.38000;    -0.19993;1.00000
108.43063; 42.47000;    -0.20058;1.00000
108.61066; 42.56000;    -0.19901;1.00000
108.79064; 42.65000;    -0.19919;1.00000
108.97070; 42.74000;    -0.20003;1.00000
109.15078; 42.83000;    -0.20123;1.00000
109.33078; 42.92000;    -0.20012;1.00000
109.51079; 43.01000;    -0.19975;1.00000
109.69078; 43.10000;    -0.19947;1.00000
109.87082; 43.19000;    -0.19947;1.00000
110.05080; 43.28000;    -0.20021;1.00000
110.23089; 43.37000;    -0.19910;1.00000
110.41095; 43.46000;    -0.20067;1.00000
110.59092; 43.55000;    -0.19947;1.00000
110.77091; 43.64000;    -0.19919;1.00000
110.95098; 43.73000;    -0.19966;1.00000
111.13099; 43.82000;    -0.19975;1.00000
111.31104; 43.91000;    -0.19938;1.00000
111.49099; 44.00000;    -0.19901;1.00000
111.67098; 44.09000;    -0.19836;1.00000
111.85094; 44.18000;    -0.19892;1.00000
112.03092; 44.27000;    -0.19910;1.00000
112.21087; 44.36000;    -0.19901;1.00000
112.39082; 44.45000;    -0.19901;1.00000
112.57086; 44.54000;    -0.19938;1.00000
112.75080; 44.63000;    -0.19771;1.00000
112.93073; 44.72000;    -0.19928;1.00000
113.11070; 44.81000;    -0.19910;1.00000
113.29069; 44.90000;    -0.19762;1.00000
113.47064; 44.99000;    -0.19975;1.00000
113.65065; 45.08000;    -0.19845;1.00000
113.83066; 45.17000;    -0.19910;1.00000
114.01063; 45.26000;    -0.19910;1.00000
114.19062; 45.35000;    -0.19817;1.00000
114.37059; 45.44000;    -0.19771;1.00000
114.55055; 45.53000;    -0.19891;1.00000
114.73054; 45.62000;    -0.19827;1.00000
114.91064; 45.71000;    -0.19873;1.00000
115.09062; 45.80000;    -0.19947;1.00000
115.27062; 45.89000;    -0.19836;1.00000
115.45067; 45.98000;    -0.19799;1.00000
115.63064; 46.07000;    -0.19836;1.00000
115.81061; 46.16000;    -0.19892;1.00000
115.99061; 46.25000;    -0.19864;1.00000
116.17058; 46.34000;    -0.19808;1.00000
116.35063; 46.43000;    -0.19781;1.00000
116.53061; 46.52000;    -0.19938;1.00000
116.71067; 46.61000;    -0.19929;1.00000
116.89064; 46.70000;    -0.19919;1.00000
117.07066; 46.79000;    -0.19855;1.00000
117.25065; 46.88000;    -0.19910;1.00000
117.43065; 46.97000;    -0.19919;1.00000
117.61068; 47.06000;    -0.19855;1.00000
117.79068; 47.15000;    -0.19891;1.00000
117.97074; 47.24000;    -0.19873;1.00000
118.15070; 47.33000;    -0.19808;1.00000
118.33067; 47.42000;    -0.19781;1.00000
118.51075; 47.51000;    -0.19808;1.00000
118.69071; 47.60000;    -0.19799;1.00000
118.87077; 47.69000;    -0.19744;1.00000
119.05073; 47.78000;    -0.19808;1.00000
119.23069; 47.87000;    -0.19762;1.00000
119.41070; 47.96000;    -0.19781;1.00000
119.59072; 48.05000;    -0.19817;1.00000
119.77072; 48.14000;    -0.19836;1.00000
119.95072; 48.23000;    -0.19725;1.00000
120.13075; 48.32000;    -0.19716;1.00000
120.31073; 48.41000;    -0.19781;1.00000
120.49071; 48.50000;    -0.19707;1.00000
120.67068; 48.59000;    -0.19651;1.00000
120.85061; 48.68000;    -0.19651;1.00000
121.03060; 48.77000;    -0.19753;1.00000
121.21064; 48.86000;    -0.19799;1.00000
121.39063; 48.95000;    -0.19744;1.00000
121.57061; 49.04000;    -0.19651;1.00000
121.75061; 49.13000;    -0.19670;1.00000
121.93054; 49.22000;    -0.19688;1.00000
122.11053; 49.31000;    -0.19633;1.00000
122.29059; 49.40000;    -0.19716;1.00000
122.47062; 49.49000;    -0.19762;1.00000
122.65062; 49.58000;    -0.19707;1.00000
122.83062; 49.67000;    -0.19623;1.00000
123.01063; 49.76000;    -0.19743;1.00000
123.19068; 49.85000;    -0.19651;1.00000
123.37067; 49.94000;    -0.19679;1.00000
123.55073; 50.03000;    -0.19633;1.00000
123.73081; 50.12000;    -0.19586;1.00000
123.91078; 50.21000;    -0.19734;1.00000
124.09076; 50.30000;    -0.19707;1.00000
124.27075; 50.39000;    -0.19633;1.00000
124.45071; 50.48000;    -0.19605;1.00000
124.63074; 50.57000;    -0.19614;1.00000
124.81076; 50.66000;    -0.19494;1.00000
124.99074; 50.75000;    -0.19485;1.00000
125.17072; 50.84000;    -0.19503;1.00000
125.35073; 50.93000;    -0.19577;1.00000
125.53069; 51.02000;    -0.19707;1.00000
125.71063; 51.11000;    -0.19522;1.00000
125.89072; 51.20000;    -0.19596;1.00000
126.07076; 51.29000;    -0.19513;1.00000
126.25082; 51.38000;    -0.19457;1.00000
126.43084; 51.47000;    -0.19503;1.00000
126.61085; 51.56000;    -0.19494;1.00000
126.79093; 51.65000;    -0.19448;1.00000
126.97100; 51.74000;    -0.19392;1.00000
127.15102; 51.83000;    -0.19494;1.00000
127.33104; 51.92000;    -0.19438;1.00000
127.51112; 52.01000;    -0.19383;1.00000
127.69120; 52.10000;    -0.19438;1.00000
127.87117; 52.19000;    -0.19466;1.00000
128.05121; 52.28000;    -0.19254;1.00000
128.23123; 52.37000;    -0.19337;1.00000
128.41131; 52.46000;    -0.19318;1.00000
128.59137; 52.55000;    -0.19364;1.00000
128.77133; 52.64000;    -0.19300;1.00000
128.95131; 52.73000;    -0.19207;1.00000
129.13134; 52.82000;    -0.19309;1.00000
129.31141; 52.91000;    -0.19346;1.00000
129.49139; 53.00000;    -0.19364;1.00000
129.67138; 53.09000;    -0.19198;1.00000
129.85133; 53.18000;    -0.19309;1.00000
130.03134; 53.27000;    -0.19189;1.00000
130.21138; 53.36000;    -0.19244;1.00000
130.39135; 53.45000;    -0.19179;1.00000
130.57134; 53.54000;    -0.19189;1.00000
130.75139; 53.63000;    -0.19124;1.00000
130.93141; 53.72000;    -0.19161;1.00000
131.11141; 53.81000;    -0.18985;1.00000
131.29135; 53.90000;    -0.19078;1.00000
131.47133; 53.99000;    -0.18985;1.00000
131.65129; 54.08000;    -0.19068;1.00000
131.83132; 54.17000;    -0.18957;1.00000
132.01138; 54.26000;    -0.18994;1.00000
132.19138; 54.35000;    -0.18911;1.00000
132.37140; 54.44000;    -0.18995;1.00000
132.55143; 54.53000;    -0.18911;1.00000
132.73143; 54.62000;    -0.18772;1.00000
132.91143; 54.71000;    -0.18837;1.00000
133.09146; 54.80000;    -0.18745;1.00000
133.27143; 54.89000;    -0.18884;1.00000
133.45146; 54.98000;    -0.18828;1.00000
133.63151; 55.07000;    -0.18745;1.00000
133.81151; 55.16000;    -0.18727;1.00000
133.99150; 55.25000;    -0.18726;1.00000
134.17152; 55.34000;    -0.18699;1.00000
134.35149; 55.43000;    -0.18643;1.00000
134.53141; 55.52000;    -0.18569;1.00000
134.71143; 55.61000;    -0.18643;1.00000
134.89142; 55.70000;    -0.18541;1.00000
135.07144; 55.79000;    -0.18560;1.00000
135.25144; 55.88000;    -0.18431;1.00000
135.43140; 55.97000;    -0.18412;1.00000
135.61139; 56.06000;    -0.18467;1.00000
135.79140; 56.15000;    -0.18393;1.00000
135.97140; 56.24000;    -0.18347;1.00000
136.15134; 56.33000;    -0.18301;1.00000
136.33129; 56.42000;    -0.18421;1.00000
136.51132; 56.51000;    -0.18412;1.00000
136.69129; 56.60000;    -0.18060;1.00000
136.87132; 56.69000;    -0.18070;1.00000
137.05128; 56.78000;    -0.18079;1.00000
137.23124; 56.87000;    -0.18033;1.00000
137.41133; 56.96000;    -0.18042;1.00000
137.59131; 57.05000;    -0.17949;1.00000
137.77122; 57.14000;    -0.17977;1.00000
137.95123; 57.23000;    -0.17876;1.00000
138.13122; 57.32000;    -0.17977;1.00000
138.31123; 57.41000;    -0.17746;1.00000
138.49124; 57.50000;    -0.17718;1.00000
138.67123; 57.59000;    -0.17691;1.00000
138.85124; 57.68000;    -0.17700;1.00000
139.03124; 57.77000;    -0.17515;1.00000
139.21131; 57.86000;    -0.17524;1.00000
139.39124; 57.95000;    -0.17533;1.00000
139.57125; 58.04000;    -0.17376;1.00000
139.75128; 58.13000;    -0.17524;1.00000
139.93128; 58.22000;    -0.17201;1.00000
140.11130; 58.31000;    -0.17182;1.00000
140.29133; 58.40000;    -0.17191;1.00000
140.47135; 58.49000;    -0.17062;1.00000
140.65139; 58.58000;    -0.17071;1.00000
140.83131; 58.67000;    -0.16978;1.00000
141.01131; 58.76000;    -0.16923;1.00000
141.19125; 58.85000;    -0.16803;1.00000
141.37128; 58.94000;    -0.16655;1.00000
141.55128; 59.03000;    -0.16720;1.00000
141.73132; 59.12000;    -0.16497;1.00000
141.91125; 59.21000;    -0.16479;1.00000
142.09128; 59.30000;    -0.16498;1.00000
142.27123; 59.39000;    -0.16396;1.00000
142.45123; 59.48000;    -0.16285;1.00000
142.63120; 59.57000;    -0.16137;1.00000
142.81120; 59.66000;    -0.16054;1.00000
142.99120; 59.75000;    -0.15998;1.00000
143.17125; 59.84000;    -0.15832;1.00000
143.35123; 59.93000;    -0.15823;1.00000
143.53122; 60.02000;    -0.15786;1.00000
143.71120; 60.11000;    -0.15545;1.00000
143.89125; 60.20000;    -0.15684;1.00000
144.07126; 60.29000;    -0.15425;1.00000
144.25128; 60.38000;    -0.15333;1.00000
144.43128; 60.47000;    -0.15323;1.00000
144.61133; 60.56000;    -0.15110;1.00000
144.79132; 60.65000;    -0.14972;1.00000
144.97133; 60.74000;    -0.14888;1.00000
145.15123; 60.83000;    -0.14815;1.00000
145.33124; 60.92000;    -0.14556;1.00000
145.51122; 61.01000;    -0.14722;1.00000
145.69117; 61.10000;    -0.14380;1.00000
145.87108; 61.19000;    -0.14389;1.00000
146.05109; 61.28000;    -0.14213;1.00000
146.23106; 61.37000;    -0.14103;1.00000
146.41105; 61.46000;    -0.13807;1.00000
146.59100; 61.55000;    -0.13769;1.00000
146.77102; 61.64000;    -0.13668;1.00000
146.95107; 61.73000;    -0.13659;1.00000
147.13109; 61.82000;    -0.13390;1.00000
147.31113; 61.91000;    -0.13233;1.00000
147.49114; 62.00000;    -0.13150;1.00000
147.67118; 62.09000;    -0.12965;1.00000
147.85123; 62.18000;    -0.12845;1.00000
148.03132; 62.27000;    -0.12613;1.00000
148.21138; 62.36000;    -0.12512;1.00000
148.39137; 62.45000;    -0.12401;1.00000
148.57135; 62.54000;    -0.12161;1.00000
148.75141; 62.63000;    -0.12031;1.00000
148.93142; 62.72000;    -0.11874;1.00000
149.11141; 62.81000;    -0.11615;1.00000
149.29139; 62.90000;    -0.11430;1.00000
149.47146; 62.99000;    -0.11208;1.00000
149.65153; 63.08000;    -0.11125;1.00000
149.83153; 63.17000;    -0.10829;1.00000
150.01152; 63.26000;    -0.10727;1.00000
150.19147; 63.35000;    -0.10570;1.00000
150.37150; 63.44000;    -0.10413;1.00000
150.55151; 63.53000;    -0.10015;1.00000
150.73146; 63.62000;-9.8299e-002;1.00000
150.91141; 63.71000;-9.6268e-002;1.00000
151.09137; 63.80000;-9.4692e-002;1.00000
151.27139; 63.89000;-9.1920e-002;1.00000
151.45130; 63.98000;-8.9978e-002;1.00000
151.63123; 64.07000;-8.7294e-002;1.00000
151.81122; 64.16000;-8.3133e-002;1.00000
151.99124; 64.25000;-8.1837e-002;1.00000
152.17117; 64.34000;-7.9065e-002;1.00000
152.35119; 64.43000;-7.7401e-002;1.00000
152.53116; 64.52000;-7.4531e-002;1.00000
152.71122; 64.61000;-7.1482e-002;1.00000
152.89125; 64.70000;-6.9356e-002;1.00000
153.07128; 64.79000;-6.4267e-002;1.00000
153.25132; 64.88000;-6.3622e-002;1.00000
153.43135; 64.97000;-5.8904e-002;1.00000
153.61143; 65.06000;-5.6686e-002;1.00000
153.79143; 65.15000;-5.2985e-002;1.00000
153.97145; 65.24000;-4.8731e-002;1.00000
154.15151; 65.33000;-4.5774e-002;1.00000
154.33146; 65.42000;-4.2258e-002;1.00000
154.51145; 65.51000;-4.0317e-002;1.00000
154.69148; 65.60000;-3.5878e-002;1.00000
154.87146; 65.69000;-3.2825e-002;1.00000
155.05151; 65.78000;-2.8018e-002;1.00000
155.23146; 65.87000;-2.4964e-002;1.00000
155.41145; 65.96000;-2.1635e-002;1.00000
155.59142; 66.05000;-1.7011e-002;1.00000
155.77138; 66.14000;-1.2481e-002;1.00000
155.95136; 66.23000;-8.6899e-003;1.00000
156.13134; 66.32000;-4.8059e-003;1.00000
156.31137; 66.41000; 2.7836e-006;1.00000
156.49138; 66.50000; 4.5366e-003;1.00000
156.67132; 66.59000; 9.6223e-003;1.00000
156.85131; 66.68000; 1.4153e-002;1.00000
157.03129; 66.77000; 1.8779e-002;1.00000
157.21131; 66.86000; 2.4140e-002;1.00000
157.39123; 66.95000; 2.9505e-002;1.00000
157.57121; 67.04000; 3.3573e-002;1.00000
157.75124; 67.13000; 3.9584e-002;1.00000
157.93132; 67.22000; 4.5318e-002;1.00000
158.11137; 67.31000; 5.1328e-002;1.00000
158.29138; 67.40000; 5.6786e-002;1.00000
158.47144; 67.49000; 6.3906e-002;1.00000
158.65150; 67.58000; 6.8716e-002;1.00000
158.83155; 67.67000; 7.5096e-002;1.00000
159.01160; 67.76000; 8.2492e-002;1.00000
159.19165; 67.85000; 8.8228e-002;1.00000
159.37176; 67.94000; 9.3867e-002;1.00000
159.55191; 68.03000;     0.10164;1.00000
159.73195; 68.12000;     0.10894;1.00000
159.91201; 68.21000;     0.11578;1.00000
160.09207; 68.30000;     0.12374;1.00000
160.27216; 68.39000;     0.13114;1.00000
160.45223; 68.48000;     0.13872;1.00000
160.63236; 68.57000;     0.14686;1.00000
160.81244; 68.66000;     0.15389;1.00000
160.99260; 68.75000;     0.16175;1.00000
161.17269; 68.84000;     0.17247;1.00000
161.35276; 68.93000;     0.18043;1.00000
161.53281; 69.02000;     0.19060;1.00000
161.71290; 69.11000;     0.19864;1.00000
161.89305; 69.20000;     0.20687;1.00000
162.07311; 69.29000;     0.21964;1.00000
162.25322; 69.38000;     0.22667;1.00000
162.43329; 69.47000;     0.23915;1.00000
162.61335; 69.56000;     0.25154;1.00000
162.79340; 69.65000;     0.25959;1.00000
162.97350; 69.74000;     0.27152;1.00000
163.15358; 69.83000;     0.28335;1.00000
163.33364; 69.92000;     0.29464;1.00000
163.51369; 70.01000;     0.30555;1.00000
163.69377; 70.10000;     0.31868;1.00000
163.87381; 70.19000;     0.33126;1.00000
164.05386; 70.28000;     0.34328;1.00000
164.23390; 70.37000;     0.35697;1.00000
164.41384; 70.46000;     0.37065;1.00000
164.59391; 70.55000;     0.38462;1.00000
164.77388; 70.64000;     0.39812;1.00000
164.95388; 70.73000;     0.41338;1.00000
165.13390; 70.82000;     0.42771;1.00000
165.31392; 70.91000;     0.44288;1.00000
165.49400; 71.00000;     0.45879;1.00000
165.67408; 71.09000;     0.47506;1.00000
165.85412; 71.18000;     0.49263;1.00000
166.03420; 71.27000;     0.50854;1.00000
166.21436; 71.36000;     0.52675;1.00000
166.39439; 71.45000;     0.54294;1.00000
166.57443; 71.54000;     0.56153;1.00000
166.75451; 71.63000;     0.58150;1.00000
166.93453; 71.72000;     0.60055;1.00000
167.11456; 71.81000;     0.61942;1.00000
167.29458; 71.90000;     0.64198;1.00000
167.47470; 71.99000;     0.66177;1.00000
167.65461; 72.08000;     0.68240;1.00000
167.83464; 72.17000;     0.70459;1.00000
168.01460; 72.26000;     0.72697;1.00000
168.19450; 72.35000;     0.75212;1.00000
168.37454; 72.44000;     0.77912;1.00000
168.55457; 72.53000;     0.80724;1.00000
168.73459; 72.62000;     0.83619;1.00000
168.91462; 72.71000;     0.86698;1.00000
169.09464; 72.80000;     0.89925;1.00000
169.27467; 72.89000;     0.93421;1.00000
169.45461; 72.98000;     0.96935;1.00000
169.63464; 73.07000;     1.00745;1.00000
169.81467; 73.16000;     1.04426;1.00000
169.99471; 73.25000;     1.08347;1.00000
170.17474; 73.34000;     1.12379;1.00000
170.35478; 73.43000;     1.16420;1.00000
170.53486; 73.52000;     1.20323;1.00000
170.71487; 73.61000;     1.24540;1.00000
170.89485; 73.70000;     1.28396;1.00000
171.07491; 73.79000;     1.32419;1.00000
171.25494; 73.88000;     1.36257;1.00000
171.43498; 73.97000;     1.39928;1.00000
171.61503; 74.06000;     1.43692;1.00000
171.79503; 74.15000;     1.46984;1.00000
171.97509; 74.24000;     1.50415;1.00000
172.15517; 74.33000;     1.53670;1.00000
172.33517; 74.42000;     1.56482;1.00000
172.51520; 74.51000;     1.58941;1.00000
172.69524; 74.60000;     1.61263;1.00000
172.87534; 74.69000;     1.63371;1.00000
173.05539; 74.78000;     1.65156;1.00000
173.23537; 74.87000;     1.66802;1.00000
173.41542; 74.96000;     1.67976;1.00000
173.59542; 75.05000;     1.69031;1.00000
173.77544; 75.14000;     1.69558;1.00000
173.95537; 75.23000;     1.69955;1.00000
174.13527; 75.32000;     1.69928;1.00000
174.31519; 75.41000;     1.69595;1.00000
174.49510; 75.50000;     1.69058;1.00000
174.67509; 75.59000;     1.68300;1.00000
174.85504; 75.68000;     1.67107;1.00000
175.03497; 75.77000;     1.65905;1.00000
175.21495; 75.86000;     1.64296;1.00000
175.39493; 75.95000;     1.62483;1.00000
175.57489; 76.04000;     1.60467;1.00000
175.75492; 76.13000;     1.58155;1.00000
175.93492; 76.22000;     1.55982;1.00000
176.11496; 76.31000;     1.53522;1.00000
176.29500; 76.40000;     1.50970;1.00000
176.47507; 76.49000;     1.48186;1.00000
176.65505; 76.58000;     1.45421;1.00000
176.83496; 76.67000;     1.42527;1.00000
177.01502; 76.76000;     1.39651;1.00000
177.19495; 76.85000;     1.36442;1.00000
177.37494; 76.94000;     1.33344;1.00000
177.55498; 77.03000;     1.30209;1.00000
177.73495; 77.12000;     1.27129;1.00000
177.91496; 77.21000;     1.24003;1.00000
178.09495; 77.30000;     1.20850;1.00000
178.27492; 77.39000;     1.17752;1.00000
178.45491; 77.48000;     1.14654;1.00000
178.63490; 77.57000;     1.11686;1.00000
178.81493; 77.66000;     1.08680;1.00000
178.99494; 77.75000;     1.05647;1.00000
179.17492; 77.84000;     1.02650;1.00000
179.35489; 77.93000;     0.99858;1.00000
179.53492; 78.02000;     0.97148;1.00000
179.71484; 78.11000;     0.94466;1.00000
179.89484; 78.20000;     0.91710;1.00000
180.07480; 78.29000;     0.88871;1.00000
180.25478; 78.38000;     0.86522;1.00000
180.43469; 78.47000;     0.83970;1.00000
180.61468; 78.56000;     0.81427;1.00000
180.79469; 78.65000;     0.79152;1.00000
180.97465; 78.74000;     0.76766;1.00000
181.15464; 78.83000;     0.74695;1.00000
181.33466; 78.92000;     0.72262;1.00000
181.51458; 79.01000;     0.70107;1.00000
181.69455; 79.10000;     0.68055;1.00000
181.87451; 79.19000;     0.66029;1.00000
182.05452; 79.28000;     0.63948;1.00000
182.23452; 79.37000;     0.62016;1.00000
182.41458; 79.46000;     0.60397;1.00000
182.59452; 79.55000;     0.58428;1.00000
182.77451; 79.64000;     0.56643;1.00000
182.95449; 79.73000;     0.55098;1.00000
183.13449; 79.82000;     0.53304;1.00000
183.31446; 79.91000;     0.51547;1.00000
183.49451; 80.00000;     0.49892;1.00000
183.67451; 80.09000;     0.48477;1.00000
183.85453; 80.18000;     0.46849;1.00000
184.03453; 80.27000;     0.45509;1.00000
184.21449; 80.36000;     0.43918;1.00000
184.39449; 80.45000;     0.42706;1.00000
184.57450; 80.54000;     0.41403;1.00000
184.75452; 80.63000;     0.39904;1.00000
184.93459; 80.72000;     0.38721;1.00000
185.11459; 80.81000;     0.37454;1.00000
185.29456; 80.90000;     0.36178;1.00000
185.47452; 80.99000;     0.35077;1.00000
185.65450; 81.08000;     0.33745;1.00000
185.83453; 81.17000;     0.32774;1.00000
186.01453; 81.26000;     0.31729;1.00000
186.19458; 81.35000;     0.30657;1.00000
186.37455; 81.44000;     0.29519;1.00000
186.55459; 81.53000;     0.28502;1.00000
186.73454; 81.62000;     0.27476;1.00000
186.91449; 81.71000;     0.26560;1.00000
187.09451; 81.80000;     0.25719;1.00000
187.27455; 81.89000;     0.24738;1.00000
187.45463; 81.98000;     0.23702;1.00000
187.63463; 82.07000;     0.22805;1.00000
187.81468; 82.16000;     0.22010;1.00000
187.99468; 82.25000;     0.21021;1.00000
188.17475; 82.34000;     0.20234;1.00000
188.35475; 82.43000;     0.19291;1.00000
188.53473; 82.52000;     0.18662;1.00000
188.71477; 82.61000;     0.17774;1.00000
188.89480; 82.70000;     0.17127;1.00000
189.07480; 82.79000;     0.16332;1.00000
189.25488; 82.88000;     0.15722;1.00000
189.43485; 82.97000;     0.15046;1.00000
189.61484; 83.06000;     0.14242;1.00000
189.79474; 83.15000;     0.13641;1.00000
189.97478; 83.24000;     0.12910;1.00000
190.15467; 83.33000;     0.12374;1.00000
190.33464; 83.42000;     0.11643;1.00000
190.51464; 83.51000;     0.11144;1.00000
190.69455; 83.60000;     0.10478;1.00000
190.87456; 83.69000; 9.8215e-002;1.00000
191.05451; 83.78000; 9.2944e-002;1.00000
191.23445; 83.87000; 8.6657e-002;1.00000
191.41443; 83.96000; 8.1106e-002;1.00000
191.59444; 84.05000; 7.6946e-002;1.00000
191.77445; 84.14000; 7.0195e-002;1.00000
191.95444; 84.23000; 6.6773e-002;1.00000
192.13449; 84.32000; 5.9930e-002;1.00000
192.31452; 84.41000; 5.4659e-002;1.00000
192.49455; 84.50000; 5.0960e-002;1.00000
192.67463; 84.59000; 4.5687e-002;1.00000
192.85454; 84.68000; 4.2265e-002;1.00000
193.03459; 84.77000; 3.5977e-002;1.00000
193.21458; 84.86000; 3.2370e-002;1.00000
193.39461; 84.95000; 2.9227e-002;1.00000
193.57454; 85.04000; 2.5065e-002;1.00000
193.75457; 85.13000; 1.9887e-002;1.00000
193.93453; 85.22000; 1.4802e-002;1.00000
194.11458; 85.31000; 1.0175e-002;1.00000
194.29455; 85.40000; 6.6636e-003;1.00000
194.47455; 85.49000; 2.5929e-003;1.00000
194.65460; 85.58000;-2.2157e-003;1.00000
194.83475; 85.67000;-5.1736e-003;1.00000
195.01475; 85.76000;-8.1349e-003;1.00000
195.19474; 85.85000;-1.2481e-002;1.00000
195.37476; 85.94000;-1.5532e-002;1.00000
195.55486; 86.03000;-2.0436e-002;1.00000
195.73490; 86.12000;-2.4318e-002;1.00000
195.91492; 86.21000;-2.6723e-002;1.00000
196.09492; 86.30000;-2.9587e-002;1.00000
196.27489; 86.39000;-3.3381e-002;1.00000
196.45488; 86.48000;-3.7079e-002;1.00000
196.63486; 86.57000;-3.8003e-002;1.00000
196.81484; 86.66000;-4.1427e-002;1.00000
196.99479; 86.75000;-4.4940e-002;1.00000
197.17479; 86.84000;-4.8177e-002;1.00000
197.35481; 86.93000;-5.0766e-002;1.00000
197.53475; 87.02000;-5.3263e-002;1.00000
197.71478; 87.11000;-5.5391e-002;1.00000
197.89469; 87.20000;-5.8163e-002;1.00000
198.07465; 87.29000;-6.1401e-002;1.00000
198.25469; 87.38000;-6.4452e-002;1.00000
198.43466; 87.47000;-6.5562e-002;1.00000
198.61459; 87.56000;-6.8894e-002;1.00000
198.79445; 87.65000;-7.1295e-002;1.00000
198.97441; 87.74000;-7.3886e-002;1.00000
199.15436; 87.83000;-7.6845e-002;1.00000
199.33435; 87.92000;-7.6937e-002;1.00000
199.51435; 88.01000;-7.8972e-002;1.00000
199.69432; 88.10000;-8.1836e-002;1.00000
199.87432; 88.19000;-8.3595e-002;1.00000
200.05441; 88.28000;-8.5446e-002;1.00000
200.23440; 88.37000;-8.8868e-002;1.00000
200.41445; 88.46000;-9.0347e-002;1.00000
200.59443; 88.55000;-9.2102e-002;1.00000
200.77456; 88.64000;-9.2751e-002;1.00000
200.95458; 88.73000;-9.4693e-002;1.00000
201.13462; 88.82000;-9.5709e-002;1.00000
201.31464; 88.91000;-9.7840e-002;1.00000
201.49469; 89.00000;-9.9040e-002;1.00000
201.67469; 89.09000;    -0.10117;1.00000
201.85470; 89.18000;    -0.10385;1.00000
202.03462; 89.27000;    -0.10366;1.00000
202.21460; 89.36000;    -0.10450;1.00000
202.39455; 89.45000;    -0.10616;1.00000
202.57450; 89.54000;    -0.10690;1.00000
202.75446; 89.63000;    -0.10875;1.00000
202.93440; 89.72000;    -0.11004;1.00000
203.11444; 89.81000;    -0.11152;1.00000
203.29439; 89.90000;    -0.11199;1.00000
203.47438; 89.99000;    -0.11384;1.00000
203.65440; 90.08000;    -0.11430;1.00000
203.83439; 90.17000;    -0.11550;1.00000
204.01441; 90.26000;    -0.11605;1.00000
204.19437; 90.35000;    -0.11716;1.00000
204.37438; 90.44000;    -0.11781;1.00000
204.55439; 90.53000;    -0.11837;1.00000
204.73441; 90.62000;    -0.11975;1.00000
204.91449; 90.71000;    -0.12133;1.00000
205.09452; 90.80000;    -0.12142;1.00000
205.27460; 90.89000;    -0.12234;1.00000
205.45460; 90.98000;    -0.12253;1.00000
205.63454; 91.07000;    -0.12391;1.00000
205.81458; 91.16000;    -0.12475;1.00000
205.99463; 91.25000;    -0.12577;1.00000
206.17476; 91.34000;    -0.12586;1.00000
206.35489; 91.43000;    -0.12660;1.00000
206.53491; 91.52000;    -0.12752;1.00000
206.71491; 91.61000;    -0.12854;1.00000
206.89494; 91.70000;    -0.12845;1.00000
207.07490; 91.79000;    -0.12891;1.00000
207.25489; 91.88000;    -0.12993;1.00000
207.43490; 91.97000;    -0.13104;1.00000
207.61499; 92.06000;    -0.13122;1.00000
207.79492; 92.15000;    -0.13400;1.00000
207.97485; 92.24000;    -0.13418;1.00000
208.15481; 92.33000;    -0.13390;1.00000
208.33479; 92.42000;    -0.13585;1.00000
208.51475; 92.51000;    -0.13455;1.00000
208.69479; 92.60000;    -0.13492;1.00000
208.87482; 92.69000;    -0.13714;1.00000
209.05480; 92.78000;    -0.13760;1.00000
209.23482; 92.87000;    -0.13538;1.00000
209.41485; 92.96000;    -0.13649;1.00000
209.59483; 93.05000;    -0.13686;1.00000
209.77487; 93.14000;    -0.13603;1.00000
209.95501; 93.23000;    -0.13585;1.00000
210.13507; 93.32000;    -0.13353;1.00000
210.31502; 93.41000;    -0.12752;1.00000
210.49501; 93.50000;    -0.12438;1.00000
210.67506; 93.59000;    -0.12355;1.00000
210.85509; 93.68000;    -0.12290;1.00000
211.03513; 93.77000;    -0.12207;1.00000
211.21514; 93.86000;    -0.12244;1.00000
211.39519; 93.95000;    -0.12364;1.00000
211.57522; 94.04000;    -0.12308;1.00000
211.75526; 94.13000;    -0.12262;1.00000
211.93523; 94.22000;    -0.12244;1.00000
212.11519; 94.31000;    -0.12364;1.00000
212.29523; 94.40000;    -0.12392;1.00000
212.47526; 94.49000;    -0.12382;1.00000
212.65531; 94.58000;    -0.12225;1.00000
212.83524; 94.67000;    -0.12253;1.00000
213.01526; 94.76000;    -0.12197;1.00000
213.19528; 94.85000;    -0.12234;1.00000
213.37525; 94.94000;    -0.12207;1.00000
213.55531; 95.03000;    -0.12170;1.00000
213.73524; 95.12000;    -0.12114;1.00000
213.91521; 95.21000;    -0.12299;1.00000
214.09515; 95.30000;    -0.12345;1.00000
214.27519; 95.39000;    -0.12318;1.00000
214.45520; 95.48000;    -0.12271;1.00000
214.63515; 95.57000;    -0.12234;1.00000
214.81515; 95.66000;    -0.12308;1.00000
214.99516; 95.75000;    -0.12188;1.00000
215.17510; 95.84000;    -0.12207;1.00000
215.35504; 95.93000;    -0.12161;1.00000
215.53499; 96.02000;    -0.12244;1.00000
215.71496; 96.11000;    -0.12207;1.00000
215.89495; 96.20000;    -0.12271;1.00000
216.07499; 96.29000;    -0.12096;1.00000
216.25498; 96.38000;    -0.12151;1.00000
216.43494; 96.47000;    -0.12096;1.00000
216.61498; 96.56000;    -0.12327;1.00000
216.79495; 96.65000;    -0.12123;1.00000
216.97494; 96.74000;    -0.12160;1.00000
217.15496; 96.83000;    -0.12244;1.00000
217.33497; 96.92000;    -0.12022;1.00000
217.51497; 97.01000;    -0.12040;1.00000
217.69505; 97.10000;    -0.12105;1.00000
217.87505; 97.19000;    -0.12114;1.00000
218.05506; 97.28000;    -0.12077;1.00000
218.23500; 97.37000;    -0.12095;1.00000
218.41509; 97.46000;    -0.12068;1.00000
218.59511; 97.55000;    -0.12049;1.00000
218.77506; 97.64000;    -0.12086;1.00000
218.95501; 97.73000;    -0.12123;1.00000
219.13499; 97.82000;    -0.11957;1.00000
219.31491; 97.91000;    -0.11976;1.00000
219.49491; 98.00000;    -0.11975;1.00000
219.67484; 98.09000;    -0.11975;1.00000
219.85483; 98.18000;    -0.12050;1.00000
220.03480; 98.27000;    -0.12058;1.00000
220.21485; 98.36000;    -0.11994;1.00000
220.39481; 98.45000;    -0.11966;1.00000
220.57472; 98.54000;    -0.11901;1.00000
220.75478; 98.63000;    -0.11920;1.00000
220.93484; 98.72000;    -0.11901;1.00000
221.11488; 98.81000;    -0.11846;1.00000
221.29485; 98.90000;    -0.11938;1.00000
221.47493; 98.99000;    -0.12003;1.00000
221.65494; 99.08000;    -0.11985;1.00000
221.83494; 99.17000;    -0.11966;1.00000
222.01497; 99.26000;    -0.11985;1.00000
222.19498; 99.35000;    -0.11827;1.00000
222.37503; 99.44000;    -0.12096;1.00000
222.55510; 99.53000;    -0.11855;1.00000
222.73511; 99.62000;    -0.11809;1.00000
222.91508; 99.71000;    -0.11920;1.00000
223.09509; 99.80000;    -0.11994;1.00000
223.27520; 99.89000;    -0.11791;1.00000
223.45523; 99.98000;    -0.11864;1.00000
223.63522;100.07000;    -0.11901;1.00000
223.81532;100.16000;    -0.11892;1.00000
223.99532;100.25000;    -0.11874;1.00000
224.17537;100.34000;    -0.11791;1.00000
224.35535;100.43000;    -0.11828;1.00000
224.53529;100.52000;    -0.11855;1.00000
224.71534;100.61000;    -0.11855;1.00000
224.89543;100.70000;    -0.11689;1.00000
225.07541;100.79000;    -0.11800;1.00000
225.25547;100.88000;    -0.11735;1.00000
225.43536;100.97000;    -0.11735;1.00000
225.61532;101.06000;    -0.11754;1.00000
225.79533;101.15000;    -0.11754;1.00000
225.97533;101.24000;    -0.11763;1.00000
226.15535;101.33000;    -0.11754;1.00000
226.33529;101.42000;    -0.11753;1.00000
226.51537;101.51000;    -0.11791;1.00000
226.69533;101.60000;    -0.11689;1.00000
226.87529;101.69000;    -0.11698;1.00000
227.05521;101.78000;    -0.11661;1.00000
227.23513;101.87000;    -0.11707;1.00000
227.41519;101.96000;    -0.11634;1.00000
227.59522;102.05000;    -0.11624;1.00000
227.77521;102.14000;    -0.11624;1.00000
227.95520;102.23000;    -0.11670;1.00000
228.13514;102.32000;    -0.11698;1.00000
228.31515;102.41000;    -0.11670;1.00000
228.49514;102.50000;    -0.11605;1.00000
228.67524;102.59000;    -0.11578;1.00000
228.85519;102.68000;    -0.11643;1.00000
229.03522;102.77000;    -0.11605;1.00000
229.21527;102.86000;    -0.11661;1.00000
229.39525;102.95000;    -0.11596;1.00000
229.57528;103.04000;    -0.11633;1.00000
229.75526;103.13000;    -0.11578;1.00000
229.93522;103.22000;    -0.11559;1.00000
230.11523;103.31000;    -0.11680;1.00000
230.29523;103.40000;    -0.11605;1.00000
230.47518;103.49000;    -0.11476;1.00000
230.65510;103.58000;    -0.11578;1.00000
230.83510;103.67000;    -0.11485;1.00000
231.01506;103.76000;    -0.11486;1.00000
231.19505;103.85000;    -0.11504;1.00000
231.37505;103.94000;    -0.11485;1.00000
231.55501;104.03000;    -0.11467;1.00000
231.73501;104.12000;    -0.11504;1.00000
231.91505;104.21000;    -0.11439;1.00000
232.09504;104.30000;    -0.11532;1.00000
232.27501;104.39000;    -0.11393;1.00000
232.45499;104.48000;    -0.11374;1.00000
232.63506;104.57000;    -0.11430;1.00000
232.81507;104.66000;    -0.11495;1.00000
232.99515;104.75000;    -0.11310;1.00000
233.17516;104.84000;    -0.11411;1.00000
233.35514;104.93000;    -0.11254;1.00000
233.53512;105.02000;    -0.11467;1.00000
233.71508;105.11000;    -0.11365;1.00000
233.89502;105.20000;    -0.11374;1.00000
234.07500;105.29000;    -0.11245;1.00000
234.25497;105.38000;    -0.11263;1.00000
234.43491;105.47000;    -0.11208;1.00000
234.61487;105.56000;    -0.11412;1.00000
234.79480;105.65000;    -0.11226;1.00000
234.97476;105.74000;    -0.11291;1.00000
235.15461;105.83000;    -0.11245;1.00000
235.33462;105.92000;    -0.11208;1.00000
235.51465;106.01000;    -0.11199;1.00000
235.69467;106.10000;    -0.11115;1.00000
235.87469;106.19000;    -0.11097;1.00000
236.05475;106.28000;    -0.11069;1.00000
236.23473;106.37000;    -0.11051;1.00000
236.41481;106.46000;    -0.11078;1.00000
236.59479;106.55000;    -0.11162;1.00000
236.77479;106.64000;    -0.11079;1.00000
236.95478;106.73000;    -0.11088;1.00000
237.13487;106.82000;    -0.10995;1.00000
237.31485;106.91000;    -0.11134;1.00000
237.49494;107.00000;    -0.10903;1.00000
237.67498;107.09000;    -0.10940;1.00000
237.85501;107.18000;    -0.11088;1.00000
238.03504;107.27000;    -0.11041;1.00000
238.21508;107.36000;    -0.10995;1.00000
238.39509;107.45000;    -0.10940;1.00000
238.57509;107.54000;    -0.10856;1.00000
238.75515;107.63000;    -0.10829;1.00000
238.93522;107.72000;    -0.10773;1.00000
239.11525;107.81000;    -0.10699;1.00000
239.29524;107.90000;    -0.10829;1.00000
239.47525;107.99000;    -0.10773;1.00000
239.65521;108.08000;    -0.10773;1.00000
239.83521;108.17000;    -0.10746;1.00000
240.01523;108.26000;    -0.10634;1.00000
240.19521;108.35000;    -0.10662;1.00000
240.37521;108.44000;    -0.10570;1.00000
240.55527;108.53000;    -0.10579;1.00000
240.73528;108.62000;    -0.10570;1.00000
240.91527;108.71000;    -0.10533;1.00000
241.09532;108.80000;    -0.10598;1.00000
241.27535;108.89000;    -0.10616;1.00000
241.45537;108.98000;    -0.10598;1.00000
241.63540;109.07000;    -0.10533;1.00000
241.81536;109.16000;    -0.10450;1.00000
241.99541;109.25000;    -0.10496;1.00000
242.17540;109.34000;    -0.10468;1.00000
242.35543;109.43000;    -0.10477;1.00000
242.53542;109.52000;    -0.10385;1.00000
242.71544;109.61000;    -0.10376;1.00000
242.89548;109.70000;    -0.10450;1.00000
243.07539;109.79000;    -0.10255;1.00000
243.25548;109.88000;    -0.10302;1.00000
243.43549;109.97000;    -0.10301;1.00000
243.61552;110.06000;    -0.10468;1.00000
243.79555;110.15000;    -0.10301;1.00000
243.97557;110.24000;    -0.10320;1.00000
244.15556;110.33000;    -0.10265;1.00000
244.33561;110.42000;    -0.10265;1.00000
244.51565;110.51000;    -0.10200;1.00000
244.69563;110.60000;    -0.10144;1.00000
244.87560;110.69000;    -0.10200;1.00000
245.05567;110.78000;    -0.10144;1.00000
245.23565;110.87000;    -0.10200;1.00000
245.41567;110.96000;    -0.10033;1.00000

