#EXPORTTYPE:DATA SINGLE
#FTYPE:ANSI
#IDENTITY:005924
#DECIMAL:POINT
#SEPARATOR:SEMICOLON
#MTYPE:DSC
#SAMPLE:3
#SAMPLE MASS /mg:11.02
#REFERENCE:
#REFERENCE MASS /mg:0
#TYPE OF CRUCIBLE:DSC/TG pan Al2O3
#SAMPLE CRUCIBLE MASS /mg:0
#REFERENCE CRUCIBLE MASS /mg:0
#DSC RANGE /�V:5000
#TG RANGE /mg:5000
#TAU-R:---
#CORR. CODE:020
#EXO:+1
#RANGE:35�C/00:00/35�C/20,0(K/min)/920�C/
#SEGMENT:S2/2
#SEG. 1:35�C/00:15/35�C
#SEG. 2:35�C/20,0(K/min)/920�C

##Temp./�C;Time/min;DSC/(uV/mg);Sensit./(uV/mW)
 34.11900;15.00250; 9.6925e-004;1.00000
 34.12771;15.25250; 1.3154e-003;1.00000
 34.24319;15.50250; 1.5923e-003;1.00000
 34.64471;15.75250;-1.5231e-003;1.00000
 35.48290;16.00250;-5.6078e-003;1.00000
 36.80038;16.25250;-1.4262e-002;1.00000
 38.58895;16.50250;-2.3608e-002;1.00000
 40.80919;16.75250;-3.3716e-002;1.00000
 43.38457;17.00250;-4.3409e-002;1.00000
 46.28457;17.25250;-5.3793e-002;1.00000
 49.45557;17.50250;-6.4732e-002;1.00000
 52.86838;17.75250;-7.0755e-002;1.00000
 56.49052;18.00250;-8.3633e-002;1.00000
 60.29871;18.25250;-8.8133e-002;1.00000
 64.26776;18.50250;-8.6679e-002;1.00000
 68.38686;18.75250;-8.9725e-002;1.00000
 72.62505;19.00250;-8.9240e-002;1.00000
 76.97686;19.25250;-8.6887e-002;1.00000
 81.44562;19.50250;    -0.10426;1.00000
 86.04281;19.75250;    -0.10378;1.00000
 90.75519;20.00250;    -0.11749;1.00000
 95.54043;20.25250;    -0.10669;1.00000
100.40852;20.50250;-9.7894e-002;1.00000
105.33757;20.75250;    -0.10274;1.00000
110.30386;21.00250;    -0.10253;1.00000
115.31476;21.25250;    -0.10170;1.00000
120.36462;21.50250;-9.5125e-002;1.00000
125.46562;21.75250;    -0.11216;1.00000
130.61576;22.00250;    -0.11873;1.00000
135.81519;22.25250;    -0.12019;1.00000
141.05867;22.50250;    -0.12254;1.00000
146.34181;22.75250;    -0.11146;1.00000
151.65652;23.00250;-9.3741e-002;1.00000
156.98776;23.25250;-9.0833e-002;1.00000
162.32952;23.50250;-9.6856e-002;1.00000
167.68110;23.75250;-9.4433e-002;1.00000
173.02424;24.00250;-8.4810e-002;1.00000
178.41810;24.25250;-7.2209e-002;1.00000
183.81319;24.50250;-6.7848e-002;1.00000
189.23495;24.75250;-5.8709e-002;1.00000
194.66867;25.00250;-5.3863e-002;1.00000
200.10890;25.25250;-5.1924e-002;1.00000
205.55143;25.50250;-4.7770e-002;1.00000
210.99462;25.75250;-5.1993e-002;1.00000
216.43476;26.00250;-3.8770e-002;1.00000
221.88428;26.25250;-3.2955e-002;1.00000
227.32633;26.50250;-2.6516e-002;1.00000
232.76871;26.75250;-2.1324e-002;1.00000
238.20767;27.00250;-1.5646e-002;1.00000
243.64548;27.25250;-7.0617e-003;1.00000
249.08143;27.50250; 5.5386e-004;1.00000
254.51338;27.75250; 5.3309e-003;1.00000
259.93805;28.00250; 1.4262e-002;1.00000
265.35876;28.25250; 2.0839e-002;1.00000
270.77695;28.50250; 2.8454e-002;1.00000
276.19000;28.75250; 3.3993e-002;1.00000
281.58924;29.00250; 4.0986e-002;1.00000
286.98090;29.25250; 4.7563e-002;1.00000
292.37414;29.50250; 5.4901e-002;1.00000
297.75386;29.75250; 6.1686e-002;1.00000
303.12176;30.00250; 6.8332e-002;1.00000
308.48662;30.25250; 7.5671e-002;1.00000
313.84590;30.50250; 8.2940e-002;1.00000
319.19881;30.75250; 8.9240e-002;1.00000
324.53900;31.00250; 9.6094e-002;1.00000
329.88081;31.25250;     0.10336;1.00000
335.20953;31.50250;     0.11043;1.00000
340.52881;31.75250;     0.11873;1.00000
345.83971;32.00250;     0.12642;1.00000
351.14257;32.25250;     0.13424;1.00000
356.43828;32.50250;     0.14227;1.00000
361.72828;32.75250;     0.14795;1.00000
367.00990;33.00250;     0.15584;1.00000
372.27857;33.25250;     0.16346;1.00000
377.54776;33.50250;     0.17211;1.00000
382.80995;33.75250;     0.17855;1.00000
388.06524;34.00250;     0.18665;1.00000
393.31547;34.25250;     0.19357;1.00000
398.54914;34.50250;     0.20223;1.00000
403.78914;34.75250;     0.20874;1.00000
409.01467;35.00250;     0.21774;1.00000
414.23576;35.25250;     0.22584;1.00000
419.45133;35.50250;     0.23380;1.00000
424.66005;35.75250;     0.24245;1.00000
429.86352;36.00250;     0.25256;1.00000
435.06228;36.25250;     0.26031;1.00000
440.25595;36.50250;     0.26911;1.00000
445.44429;36.75250;     0.27928;1.00000
450.62595;37.00250;     0.28994;1.00000
455.79943;37.25250;     0.29867;1.00000
460.96643;37.50250;     0.30926;1.00000
466.13262;37.75250;     0.31985;1.00000
471.28986;38.00250;     0.33065;1.00000
476.44248;38.25250;     0.34132;1.00000
481.58738;38.50250;     0.35108;1.00000
486.73100;38.75250;     0.36118;1.00000
491.87067;39.00250;     0.37198;1.00000
497.00419;39.25250;     0.38535;1.00000
502.13805;39.50250;     0.40660;1.00000
507.26186;39.75250;     0.41851;1.00000
512.39067;40.00250;     0.43776;1.00000
517.51401;40.25250;     0.46393;1.00000
522.64319;40.50250;     0.50408;1.00000
527.76524;40.75250;     0.55109;1.00000
532.89642;41.00250;     0.62690;1.00000
538.03724;41.25250;     0.72092;1.00000
543.18938;41.50250;     0.83245;1.00000
548.34905;41.75250;     0.94184;1.00000
553.51486;42.00250;     1.04181;1.00000
558.68424;42.25250;     1.11859;1.00000
563.85442;42.50250;     1.17023;1.00000
569.04914;42.75250;     1.18803;1.00000
574.26004;43.00250;     1.18249;1.00000
579.42153;43.25250;     1.19163;1.00000
584.76034;43.50250;     1.09200;1.00000
590.12663;43.75250;     1.01875;1.00000
595.45652;44.00250;     0.99923;1.00000
600.64762;44.25250;     1.09892;1.00000
605.78352;44.50250;     1.14032;1.00000
610.82957;44.75250;     1.19800;1.00000
615.74186;45.00250;     1.31389;1.00000
620.63857;45.25250;     1.40985;1.00000
625.54514;45.50250;     1.48406;1.00000
630.45891;45.75250;     1.54734;1.00000
635.38019;46.00250;     1.61166;1.00000
640.30795;46.25250;     1.67023;1.00000
645.26047;46.50250;     1.71980;1.00000
650.23586;46.75250;     1.75788;1.00000
655.22076;47.00250;     1.79125;1.00000
660.21956;47.25250;     1.81811;1.00000
665.22481;47.50250;     1.84033;1.00000
670.23091;47.75250;     1.85868;1.00000
675.24057;48.00250;     1.87550;1.00000
680.25676;48.25250;     1.88810;1.00000
685.27128;48.50250;     1.89897;1.00000
690.27962;48.75250;     1.91586;1.00000
695.28280;49.00250;     1.94986;1.00000
700.28229;49.25250;     2.01154;1.00000
705.28148;49.50250;     2.11152;1.00000
710.28419;49.75250;     2.24091;1.00000
715.27962;50.00250;     2.38194;1.00000
720.27824;50.25250;     2.51036;1.00000
725.28181;50.50250;     2.61712;1.00000
730.28156;50.75250;     2.69279;1.00000
735.27953;51.00250;     2.74097;1.00000
740.27238;51.25250;     2.76777;1.00000
745.26028;51.50250;     2.77524;1.00000
750.24348;51.75250;     2.76666;1.00000
755.23029;52.00250;     2.73855;1.00000
760.23334;52.25250;     2.69099;1.00000
765.25033;52.50250;     2.63256;1.00000
770.27814;52.75250;     2.57073;1.00000
775.30643;53.00250;     2.50898;1.00000
780.33538;53.25250;     2.44674;1.00000
785.35281;53.50250;     2.38948;1.00000
790.36548;53.75250;     2.33417;1.00000
795.36281;54.00250;     2.28231;1.00000
800.35543;54.25250;     2.23281;1.00000
805.33709;54.50250;     2.18400;1.00000
810.31076;54.75250;     2.13609;1.00000
815.27305;55.00250;     2.08569;1.00000
820.23314;55.25250;     2.03474;1.00000
825.19038;55.50250;     1.98150;1.00000
830.14738;55.75250;     1.92874;1.00000
835.10377;56.00250;     1.87654;1.00000
840.06557;56.25250;     1.82254;1.00000
845.03190;56.50250;     1.77214;1.00000
849.99400;56.75250;     1.72015;1.00000
854.95685;57.00250;     1.67182;1.00000
859.91838;57.25250;     1.62966;1.00000
864.87709;57.50250;     1.59020;1.00000
869.83695;57.75250;     1.55274;1.00000
874.79177;58.00250;     1.51923;1.00000
879.74871;58.25250;     1.48725;1.00000
884.70267;58.50250;     1.45893;1.00000
889.65705;58.75250;     1.43089;1.00000
894.61386;59.00250;     1.40458;1.00000

